#ZVView-data-copy:  10-Jan-2025 23:26:39
#=======================================
#
#name:   ENDF/B-VIII.0: TL-203(N,EL)TL-203-L0
#X.axis: Incident Energy
#Y.axis: Cross Section
#wdata:  2
#ldata:  4824
#data...
#            X            Y
#          MeV        barns
         1e-11      38.1167 
   1.11082e-11       36.267 
   1.23386e-11      34.5182 
   1.37059e-11      32.8635 
    1.5224e-11      31.3001 
   1.69111e-11      29.8221 
   1.87842e-11      28.4268 
   2.08659e-11      27.1088 
    2.3177e-11      25.8658 
   2.57455e-11      24.6931 
   2.85971e-11      23.5885 
   3.17662e-11      22.5477 
   3.52847e-11      21.5688 
   3.91949e-11      20.6479 
   4.35362e-11      19.7833 
   4.83609e-11      18.9716 
   5.40964e-11      18.1619 
   6.05122e-11      17.4073 
   6.76889e-11      16.7049 
   7.57167e-11      16.0523 
   8.46966e-11      15.4469 
   9.54051e-11      14.8528 
   1.07473e-10      14.3065 
   1.21061e-10      13.8056 
   1.37329e-10      13.3216 
   1.55784e-10      12.8823 
   1.77965e-10       12.464 
   2.03293e-10      12.0891 
   2.33866e-10      11.7375 
   2.70934e-10      11.4119 
   3.16075e-10       11.114 
    3.7132e-10       10.845 
   4.42398e-10      10.5956 
   5.30773e-10      10.3775 
   6.50309e-10      10.1762 
   8.13708e-10      9.99641 
    1.03981e-9      9.84074 
    1.37607e-9      9.70384 
    1.89924e-9      9.58721 
    2.79181e-9      9.48913 
    4.49523e-9      9.41002 
    8.38521e-9      9.34981 
    2.08446e-8      9.30801 
    2.52419e-8      9.30304 
       2.53e-8      9.30299 
    1.88898e-7      9.27942 
    2.44049e-5      8.70032 
    4.34478e-5      8.18166 
    5.95462e-5      7.68573 
    7.34714e-5      7.20591 
    8.57128e-5      6.73755 
    9.72309e-5      6.24924 
   0.000107249      5.78243 
   0.000115843       5.3457 
   0.000124248      4.88367 
   0.000131157       4.4777 
   0.000138366      4.02526 
   0.000145918      3.52159 
   0.000153247        3.008 
   0.000165838      2.10299 
   0.000169364      1.85969 
   0.000171753      1.70251 
   0.000172956      1.62585 
    0.00017536        1.483 
     0.0001771       1.3891 
    0.00017826      1.33187 
    0.00017942      1.27972 
    0.00018058      1.23341 
    0.00018116      1.21234 
    0.00018232      1.17637 
   0.000183625      1.14545 
   0.000184495      1.13149 
   0.000185365      1.12348 
   0.000185945      1.12159 
   0.000186743      1.12438 
    0.00018754      1.13342 
    0.00018841      1.15134 
   0.000189062      1.17074 
   0.000189715      1.19573 
   0.000190368      1.22674 
    0.00019102      1.26424 
   0.000191673      1.30876 
   0.000192325      1.36084 
   0.000192978      1.42108 
    0.00019363      1.49012 
   0.000194283      1.56867 
   0.000194935      1.65749 
   0.000195588      1.75744 
    0.00019624      1.86945 
   0.000196893      1.99451 
   0.000197545      2.13372 
   0.000198197      2.28825 
    0.00019885      2.45939 
   0.000199503      2.64856 
   0.000200155      2.85734 
   0.000200807      3.08747 
    0.00020146      3.34085 
   0.000202112      3.61959 
   0.000202765        3.926 
   0.000203417      4.26259 
    0.00020407      4.63215 
   0.000204722       5.0378 
   0.000205404      5.50348 
   0.000205868      5.84695 
   0.000206564      6.40719 
   0.000207042      6.82627 
   0.000207536      7.28957 
   0.000208029      7.78778 
   0.000208521      8.32206 
      0.000209       8.8783 
   0.000209464      9.45606 
   0.000209928      10.0745 
   0.000210392      10.7368 
   0.000210856      11.4463 
    0.00021132      12.2068 
   0.000211784      13.0223 
   0.000212248      13.8975 
   0.000212712      14.8371 
   0.000213176      15.8466 
    0.00021364      16.9321 
   0.000214104         18.1 
   0.000214568      19.3576 
   0.000215032       20.713 
   0.000215496      22.1751 
    0.00021596      23.7538 
   0.000216424      25.4602 
   0.000216888      27.3065 
   0.000217352      29.3065 
   0.000217816      31.4756 
    0.00021828      33.8311 
   0.000218744      36.3923 
   0.000219208      39.1813 
   0.000219672      42.2229 
   0.000220136      45.5451 
     0.0002206        49.18 
   0.000221064      53.1641 
   0.000221528       57.539 
   0.000221992      62.3481 
    0.00022234      66.2593 
   0.000222688      70.4831 
   0.000223036      75.0481 
   0.000223384      79.9799 
   0.000223732      85.3151 
    0.00022408      91.0951 
   0.000224428      97.3672 
   0.000224776      104.184 
   0.000225124      111.607 
   0.000225472      119.703 
    0.00022582      128.551 
   0.000226168       138.24 
   0.000226516      148.873 
   0.000226864      160.567 
   0.000227212      173.451 
   0.000227514        185.7 
   0.000227792      198.022 
    0.00022807      211.425 
   0.000228349      226.015 
   0.000228627      241.922 
   0.000228929      260.838 
   0.000229161      276.728 
   0.000229393      293.906 
   0.000229625      312.506 
   0.000229857      332.676 
   0.000230089      354.588 
   0.000230321      378.434 
   0.000230553      404.432 
   0.000230785      432.832 
   0.000231017      463.917 
   0.000231249      498.011 
   0.000231481      535.487 
   0.000231713       576.77 
   0.000231945      622.352 
   0.000232177      672.798 
   0.000232351      714.214 
   0.000232525      759.044 
   0.000232699      807.637 
   0.000232873      860.383 
   0.000233047      917.717 
   0.000233221      980.124 
   0.000233395      1048.15 
   0.000233569      1122.39 
   0.000233743      1203.52 
   0.000233917      1292.28 
   0.000234091       1389.5 
   0.000234265      1496.07 
   0.000234439      1612.99 
   0.000234613       1741.3 
   0.000234787      1882.13 
   0.000234961      2036.65 
   0.000235135      2206.04 
   0.000235309      2391.43 
   0.000235483      2593.83 
   0.000235657      2814.03 
   0.000235831      3052.42 
   0.000236005      3308.84 
   0.000236179      3582.29 
   0.000236422      3989.58 
   0.000236979      4963.74 
   0.000237211      5341.81 
   0.000237385      5592.68 
   0.000237559      5803.16 
   0.000237675      5915.93 
   0.000237791      6003.63 
   0.000237907      6064.27 
   0.000238044      6099.28 
   0.000238093      6102.04 
   0.000238244      6078.55 
   0.000238394      6008.41 
   0.000238545      5895.47 
   0.000238696      5745.02 
   0.000238864      5540.73 
   0.000239032      5307.12 
   0.000239285      4922.21 
   0.000239789      4123.58 
   0.000240042      3745.59 
    0.00024025      3453.25 
   0.000240459      3182.09 
   0.000240668      2932.88 
   0.000240877      2705.31 
   0.000241086      2498.42 
   0.000241236      2361.09 
   0.000241399       2223.8 
   0.000241561      2096.77 
   0.000241724      1979.24 
   0.000241886      1870.51 
   0.000242048      1769.85 
   0.000242211      1676.63 
   0.000242454      1549.39 
    0.00024264      1461.57 
   0.000242826      1380.82 
   0.000243011      1306.47 
   0.000243197      1237.91 
   0.000243382       1174.6 
   0.000243661      1088.41 
   0.000243939      1011.49 
   0.000244171      953.584 
   0.000244403      900.649 
   0.000244635      852.151 
   0.000244867      807.621 
   0.000245099      766.649 
   0.000245331      728.873 
   0.000245679      677.517 
   0.000246016      633.169 
   0.000246346      593.975 
   0.000246677      558.574 
   0.000247007      526.501 
   0.000247338      497.389 
   0.000247672      470.647 
   0.000248011      445.746 
    0.00024835      422.891 
   0.000248689      401.947 
   0.000249142      376.683 
   0.000249629      352.383 
    0.00024989      340.438 
   0.000250412       318.54 
   0.000250934       298.92 
   0.000251456      281.303 
    0.00025192       267.11 
   0.000252384      254.129 
   0.000252848      242.223 
   0.000253544      226.125 
    0.00025424      211.848 
   0.000254936      199.121 
   0.000255632       187.72 
   0.000256328      177.463 
   0.000257024      168.196 
    0.00025772      159.792 
   0.000258416      152.144 
   0.000259344      142.965 
   0.000260272       134.79 
     0.0002612       127.47 
   0.000262128      120.887 
   0.000263172      114.238 
   0.000264332      107.685 
   0.000265376      102.377 
   0.000266768        96.06 
   0.000268247      90.1753 
   0.000269465      85.8679 
   0.000270915      81.2973 
    0.00027222      77.5876 
    0.00027396      73.1635 
     0.0002757      69.2733 
    0.00027744      65.8036 
    0.00027918      62.7145 
    0.00028092      59.9304 
    0.00028324        56.64 
    0.00028556      53.7483 
    0.00028788      51.1894 
     0.0002902      48.9107 
    0.00029252        46.87 
    0.00029484      45.0328 
    0.00029832      42.5985 
     0.0003018      40.4843 
    0.00030528      38.6346 
    0.00030876      37.0057 
    0.00031224      35.5462 
    0.00031688      33.8434 
    0.00032152      32.3618 
    0.00032732      30.7635 
    0.00033312      29.3842 
    0.00034008      27.9676 
    0.00034704      26.7551 
    0.00035516       25.545 
    0.00036444      24.3708 
    0.00037488      23.2603 
    0.00038416      22.4135 
    0.00039576      21.5016 
    0.00040968      20.5795 
     0.0004236      19.7988 
    0.00043984      19.0248 
     0.0004584       18.275 
    0.00047928      17.5608 
     0.0005048      16.8261 
   0.000535155      16.0921 
   0.000538569      16.0229 
   0.000539668      16.0691 
   0.000541138      15.9652 
   0.000574922      15.2887 
   0.000620285      14.5146 
   0.000682167      13.5933 
    0.00074336      12.7008 
    0.00076802      12.2715 
   0.000783547       11.927 
   0.000794507       11.607 
   0.000801813      11.3271 
   0.000807293      11.0585 
   0.000810947      10.8363 
     0.0008146      10.5644 
    0.00081734      10.3149 
    0.00082008      10.0113 
   0.000821907      9.76864 
   0.000823733      9.48289 
    0.00082556      9.14131 
    0.00082693      8.83751 
     0.0008283       8.4809 
   0.000829556      8.09478 
   0.000830583      7.72576 
   0.000831268      7.44663 
   0.000831953      7.13598 
   0.000832524      6.84922 
   0.000833095      6.53315 
   0.000833666      6.18335 
   0.000834237       5.7946 
   0.000834665      5.47388 
   0.000835093      5.12506 
   0.000835521      4.74512 
   0.000835949      4.33077 
   0.000836275      3.99095 
     0.0008366      3.62859 
   0.000836925      3.24342 
   0.000837251      2.83629 
   0.000837616      2.35677 
   0.000838153      1.63419 
   0.000838324      1.41033 
   0.000838438      1.26708 
   0.000838529      1.15763 
   0.000838621      1.05428 
   0.000838689     0.981799 
   0.000838758     0.914574 
    0.00083882      0.85842 
   0.000838872     0.817003 
   0.000838923      0.78025 
   0.000838975     0.748784 
   0.000839026     0.723303 
    0.00083906     0.710025 
   0.000839092     0.700715 
   0.000839134      0.69283 
   0.000839163     0.690921 
   0.000839192     0.691912 
    0.00083922     0.696008 
   0.000839249     0.703431 
   0.000839277     0.714417 
   0.000839306      0.72922 
   0.000839332      0.74655 
   0.000839358     0.767612 
   0.000839385     0.792656 
   0.000839411     0.821945 
   0.000839435     0.852367 
   0.000839459     0.886729 
   0.000839483     0.925275 
   0.000839507     0.968258 
   0.000839531      1.01596 
   0.000839555      1.06866 
   0.000839579      1.12669 
   0.000839602      1.19036 
   0.000839632      1.27873 
   0.000839662      1.37731 
   0.000839692      1.48692 
   0.000839722      1.60845 
   0.000839752       1.7429 
   0.000839779      1.87362 
   0.000839804      2.00654 
   0.000839829      2.15046 
   0.000839853      2.30616 
   0.000839878      2.47444 
   0.000839903      2.65619 
   0.000839928      2.85235 
   0.000839953      3.06396 
   0.000839978      3.29208 
   0.000840002       3.5379 
   0.000840027      3.80268 
   0.000840055      4.11852 
   0.000840082      4.46105 
   0.000840109      4.83243 
   0.000840137      5.23492 
   0.000840164      5.67102 
   0.000840192       6.1434 
   0.000840219      6.65494 
   0.000840246      7.20868 
   0.000840274      7.80802 
   0.000840301      8.45644 
   0.000840329      9.15779 
   0.000840356      9.91613 
   0.000840383      10.7358 
   0.000840411      11.6214 
   0.000840438      12.5779 
   0.000840466      13.6103 
   0.000840493      14.7242 
    0.00084052      15.9253 
   0.000840548      17.2197 
   0.000840575      18.6135 
   0.000840603      20.1133 
    0.00084063       21.726 
   0.000840657      23.4584 
   0.000840685      25.3176 
   0.000840712      27.3111 
    0.00084074      29.4461 
   0.000840767        31.73 
   0.000840794      34.1703 
   0.000840822      36.7743 
   0.000840849      39.5489 
   0.000840886      43.5261 
   0.000840922      47.8347 
   0.000840959      52.4886 
   0.000840995         57.5 
   0.000841032      62.8787 
   0.000841068      68.6319 
   0.000841105      74.7632 
   0.000841142      81.2725 
   0.000841178      88.1555 
   0.000841233        99.16 
   0.000841288      110.932 
   0.000841342      123.392 
   0.000841415      140.882 
   0.000841635      195.701 
   0.000841712      214.182 
    0.00084177      227.067 
   0.000841836      240.105 
   0.000841904      251.903 
    0.00084195        258.5 
   0.000842007      265.218 
   0.000842063      269.953 
   0.000842126      273.016 
   0.000842169       273.79 
   0.000842234      272.887 
   0.000842292      270.072 
   0.000842347      265.819 
   0.000842402      260.164 
   0.000842475      250.747 
   0.000842548      239.605 
   0.000842658      220.698 
   0.000842886      178.744 
   0.000842977      162.822 
   0.000843046      151.614 
   0.000843114      141.147 
   0.000843183      131.472 
   0.000843251      122.607 
    0.00084332      114.538 
   0.000843388      107.232 
   0.000843457      100.641 
   0.000843525      94.7096 
   0.000843599      88.9582 
   0.000843657      84.9646 
   0.000843742      79.5967 
   0.000843828      74.8826 
   0.000843913      70.7282 
   0.000843999      67.0516 
   0.000844066       64.449 
   0.000844144      61.7242 
   0.000844261      58.1091 
   0.000844377      54.9674 
   0.000844493      52.2149 
    0.00084461      49.7854 
   0.000844706      47.9898 
    0.00084482      46.0584 
   0.000844991      43.5146 
   0.000845162      41.3191 
   0.000845334       39.406 
   0.000845505      37.7251 
   0.000845676      36.2371 
   0.000845904      34.5009 
   0.000846133      32.9967 
   0.000846361      31.6817 
   0.000846641      30.2808 
   0.000846972       28.863 
   0.000847303       27.652 
   0.000847634      26.6059 
   0.000848045      25.4908 
   0.000848291      24.9048 
   0.000848781      23.8775 
   0.000849272      23.0067 
   0.000849763      22.2594 
   0.000850334      21.5141 
   0.000850905      20.8749 
   0.000851761      20.0705 
   0.000852732      19.3286 
   0.000853759      18.6886 
   0.000854787      18.1599 
   0.000856157      17.5824 
   0.000857527      17.1139 
   0.000859353      16.6117 
    0.00086118       16.211 
    0.00086392      15.7428 
   0.000865747      15.4944 
     0.0008694      15.1027 
   0.000873053        14.81 
   0.000878533      14.4921 
   0.000884013      14.2701 
    0.00089132      14.0718 
   0.000900453      13.9326 
     0.0009105      13.8766 
   0.000911413       13.876 
   0.000922373      13.9226 
   0.000933333       14.066 
   0.000942923      14.2789 
   0.000952095      14.5658 
   0.000960503      14.9152 
   0.000968111      15.3182 
     0.0009761       15.848 
   0.000981806       16.307 
   0.000987512      16.8464 
   0.000992457      17.4024 
   0.000993788      17.6201 
   0.000994169      17.7637 
   0.000994447       17.969 
   0.000994654      18.2098 
   0.000995226      19.0833 
   0.000995422      19.2549 
   0.000995525      19.2807 
   0.000995652      19.2475 
    0.00099588      19.0375 
   0.000996261      18.5286 
   0.000996527      18.2614 
   0.000996801      18.1168 
   0.000997153      18.0615 
   0.000997309      18.0613 
   0.000998474      18.1737 
    0.00100202      18.6768 
    0.00100674      19.4545 
    0.00101173      20.4045 
    0.00101564      21.2601 
    0.00101898      22.0735 
    0.00102289      23.1274 
    0.00102512      23.7973 
    0.00102914       25.127 
    0.00103181      26.1253 
    0.00103449      27.2011 
    0.00103762      28.5974 
    0.00104074       30.145 
    0.00104342      31.6211 
     0.0010461       33.247 
    0.00104877      35.0459 
    0.00105145      37.0335 
    0.00105413      39.2425 
    0.00105681      41.6947 
    0.00105948      44.4338 
    0.00106216      47.4901 
    0.00106417      50.0252 
    0.00106618      52.7925 
    0.00106819      55.8177 
     0.0010702      59.1296 
     0.0010722      62.7615 
    0.00107421       66.752 
    0.00107622      71.1464 
    0.00107823      75.9963 
    0.00108024      81.3606 
    0.00108225      87.3049 
    0.00108425       93.903 
    0.00108626      101.239 
     0.0010876      106.581 
    0.00108894      112.326 
    0.00109095      121.795 
    0.00109229      128.719 
    0.00109363        136.2 
    0.00109485      143.561 
    0.00109653      154.394 
     0.0010982      166.381 
    0.00109987      179.582 
    0.00110155      194.107 
    0.00110322      210.071 
    0.00110456      223.956 
     0.0011059      238.892 
    0.00110724      255.027 
    0.00110858      272.178 
    0.00111059      300.048 
    0.00111259      330.409 
    0.00111455      362.057 
    0.00111762      414.754 
    0.00112107      474.601 
    0.00112275      501.533 
    0.00112442      525.679 
    0.00112609      545.914 
    0.00112721      556.716 
    0.00112866      567.069 
       0.00113      572.677 
    0.00113134      574.117 
    0.00113245      572.352 
    0.00113357      567.906 
    0.00113469      560.964 
    0.00113636      546.345 
    0.00113803      527.443 
    0.00113971      505.686 
    0.00114317      455.209 
    0.00114741      391.559 
    0.00115008       353.91 
    0.00115209       327.74 
     0.0011541      303.523 
    0.00115611      281.287 
    0.00115812      260.984 
    0.00116013      242.515 
    0.00116213      225.754 
    0.00116414      210.561 
    0.00116615       196.79 
    0.00116816      184.299 
    0.00117017      172.956 
    0.00117218      162.641 
    0.00117418      153.249 
    0.00117619      144.686 
     0.0011782      136.866 
    0.00118021      129.711 
    0.00118222      123.152 
    0.00118489      115.225 
    0.00118757      108.119 
    0.00119025      101.731 
    0.00119293      95.9657 
    0.00119561      90.7477 
    0.00119828      86.0083 
    0.00120096      81.6911 
    0.00120364      77.7455 
    0.00120632      74.1293 
    0.00121033      69.2409 
    0.00121435      64.9059 
     0.0012177      61.6522 
    0.00122171      58.1122 
     0.0012264      54.4079 
    0.00123125      50.9704 
    0.00123555      48.2051 
    0.00124185      44.5063 
     0.0012505      39.8577 
     0.0012572      36.2709 
     0.0012604      34.4021 
    0.00126333      32.4929 
    0.00126566      30.7471 
    0.00126788       28.851 
    0.00126921       27.678 
    0.00126993       27.139 
    0.00127048      26.8783 
    0.00127076      26.8451 
    0.00127104      26.9219 
    0.00127129      27.1135 
    0.00127153      27.4716 
    0.00127171      27.8908 
    0.00127189      28.4849 
    0.00127204      29.1435 
    0.00127219       30.002 
    0.00127229      30.7133 
    0.00127239      31.5605 
    0.00127249        32.57 
    0.00127259      33.7742 
    0.00127269      35.2124 
    0.00127279      36.9494 
    0.00127285      38.2963 
    0.00127292      39.8184 
    0.00127299      41.5396 
    0.00127305      43.4869 
    0.00127312      45.6903 
    0.00127319      48.1835 
    0.00127326      51.0039 
    0.00127332      54.1923 
    0.00127339      57.7926 
    0.00127344      60.7916 
    0.00127349      64.0686 
    0.00127354      67.6475 
    0.00127359      71.5475 
    0.00127364      75.7913 
    0.00127369      80.3994 
    0.00127374      85.3933 
     0.0012738      91.9213 
    0.00127386      99.6847 
    0.00127393      108.193 
      0.001274       117.47 
    0.00127406      127.519 
    0.00127414      140.352 
     0.0012742      152.339 
    0.00127427      165.039 
    0.00127437      185.243 
    0.00127452      217.354 
    0.00127472      259.542 
    0.00127482       280.85 
    0.00127489      293.946 
    0.00127497      306.722 
    0.00127504       317.85 
    0.00127512      327.085 
    0.00127519      334.228 
    0.00127527      339.075 
    0.00127535      341.806 
     0.0012754       342.18 
    0.00127549      340.477 
    0.00127557      336.192 
    0.00127565      329.547 
    0.00127573      320.832 
    0.00127581      310.714 
     0.0012759      299.291 
      0.001276      282.606 
     0.0012763      233.761 
    0.00127643      212.534 
    0.00127653      197.669 
    0.00127663      183.899 
    0.00127673      171.301 
    0.00127683       159.89 
    0.00127693       149.63 
    0.00127703      140.457 
    0.00127713      132.281 
    0.00127723       125.01 
    0.00127733       118.54 
    0.00127743      112.781 
    0.00127753      107.644 
    0.00127763       103.05 
    0.00127777      97.6494 
    0.00127792      92.2616 
    0.00127808      87.6347 
    0.00127823      83.6271 
    0.00127839      80.1282 
    0.00127854      77.0502 
    0.00127875      73.3866 
    0.00127899      69.8575 
    0.00127924      66.8584 
    0.00127948      64.2797 
    0.00127972      62.0399 
    0.00128005      59.4293 
    0.00128038      57.1763 
    0.00128071      55.2464 
    0.00128105      53.5744 
    0.00128143      51.9072 
    0.00128187      50.2856 
    0.00128252      48.2548 
    0.00128326      46.3813 
    0.00128387      45.0907 
    0.00128478      43.4726 
    0.00128579      42.0149 
    0.00128698      40.6001 
    0.00128817      39.4237 
    0.00128957       38.259 
    0.00129157      36.8784 
    0.00129375      35.6408 
    0.00129609      34.5098 
    0.00129959        33.07 
    0.00130427      31.4398 
    0.00131524      28.0405 
    0.00131826      26.9785 
    0.00132037      26.0761 
    0.00132189      25.2588 
    0.00132271      24.7108 
    0.00132347       24.115 
    0.00132414      23.4646 
    0.00132468      22.8379 
    0.00132529      21.9812 
    0.00132569      21.2966 
    0.00132625       20.244 
    0.00132648      19.8791 
    0.00132664      19.7552 
    0.00132668      19.7498 
    0.00132677      19.7907 
    0.00132687      19.9497 
    0.00132694      20.1706 
    0.00132702      20.5004 
    0.00132709      20.9608 
    0.00132715      21.4124 
    0.00132721      22.0385 
    0.00132728      22.8048 
    0.00132734      23.7257 
     0.0013274      24.5969 
    0.00132746      25.7476 
    0.00132752      27.0614 
    0.00132758      28.5428 
    0.00132764      30.1937 
     0.0013277      32.0115 
    0.00132777      34.2663 
    0.00132783      36.7113 
    0.00132794      40.6811 
    0.00132809      47.1178 
    0.00132824       53.359 
    0.00132832        56.48 
     0.0013284      59.5893 
    0.00132847      61.9138 
    0.00132856      64.3118 
    0.00132864      66.2223 
    0.00132871      67.3736 
    0.00132878      68.1699 
    0.00132882      68.5029 
     0.0013289      68.7122 
    0.00132898      68.4559 
    0.00132906      67.7766 
    0.00132914      66.7291 
    0.00132926      64.6056 
    0.00132938      62.0207 
    0.00132971      54.4219 
    0.00132987      50.8534 
    0.00132999      48.4358 
    0.00133011      46.2994 
    0.00133025      44.2308 
    0.00133039      42.4798 
    0.00133053       41.003 
    0.00133067      39.7554 
    0.00133082      38.6105 
    0.00133097      37.6417 
    0.00133117      36.5623 
    0.00133137       35.668 
    0.00133167      34.5783 
    0.00133187      33.9768 
    0.00133228      32.9876 
    0.00133271      32.1424 
    0.00133315      31.4619 
    0.00133381      30.6422 
    0.00133456      29.9267 
    0.00133543       29.263 
    0.00133643      28.6536 
    0.00133774      28.0184 
    0.00133935      27.3886 
    0.00134125       26.774 
    0.00134457      25.9037 
     0.0013493      24.8856 
    0.00135695      23.4928 
     0.0013783       19.979 
     0.0013864      18.5403 
     0.0013909      17.6662 
     0.0013954      16.7144 
     0.0013999      15.6636 
    0.00140328      14.7976 
    0.00140676      13.8269 
    0.00141376      11.7405 
    0.00141556      11.2603 
    0.00141691       10.973 
    0.00141772      10.8521 
    0.00141844      10.7922 
     0.0014188      10.7837 
    0.00141947      10.8168 
    0.00142015      10.9303 
     0.0014206      11.0629 
    0.00142105       11.252 
     0.0014215      11.5093 
    0.00142195      11.8492 
    0.00142229      12.1687 
    0.00142269       12.639 
    0.00142298      13.0476 
    0.00142328      13.5236 
    0.00142357      14.0772 
    0.00142386      14.7205 
    0.00142416      15.4668 
    0.00142437      16.1037 
    0.00142459      16.8152 
    0.00142485      17.7361 
    0.00142506      18.6055 
    0.00142527      19.5742 
    0.00142548      20.6545 
    0.00142569      21.8604 
     0.0014259      23.2078 
    0.00142611      24.7152 
    0.00142633      26.4038 
     0.0014265       27.981 
    0.00142672      30.1174 
    0.00142686      31.6917 
    0.00142701      33.3992 
    0.00142715      35.2534 
     0.0014273      37.2683 
    0.00142744      39.4605 
    0.00142758      41.8479 
    0.00142771      44.1133 
    0.00142784      46.5588 
    0.00142796      49.2014 
    0.00142809      52.0593 
    0.00142821      55.1538 
    0.00142834      58.5071 
    0.00142847       62.145 
    0.00142859      66.0954 
    0.00142875      71.6858 
    0.00142886      75.7657 
    0.00142897       80.157 
    0.00142908      84.8876 
    0.00142919      89.9876 
    0.00142929        95.49 
     0.0014294      101.431 
     0.0014295      107.296 
    0.00142964      116.002 
    0.00142977      125.609 
    0.00142991      136.217 
    0.00143004      147.939 
    0.00143018      160.891 
     0.0014303       173.71 
    0.00143042      187.727 
    0.00143054      203.044 
    0.00143066      219.762 
    0.00143078      237.978 
    0.00143091      257.782 
    0.00143103      279.251 
    0.00143115      302.438 
    0.00143127      327.376 
    0.00143139      354.049 
    0.00143152      383.488 
     0.0014317      428.415 
    0.00143192      488.361 
    0.00143238      613.033 
    0.00143256      660.128 
    0.00143268      688.846 
     0.0014328      714.691 
    0.00143293      737.079 
    0.00143305      755.504 
    0.00143317      769.563 
    0.00143329      778.979 
    0.00143342      783.611 
    0.00143347      784.122 
    0.00143361      781.045 
    0.00143376      771.389 
    0.00143391      755.791 
    0.00143406      735.081 
    0.00143421      710.214 
     0.0014344       674.12 
    0.00143471      607.928 
    0.00143509      527.634 
    0.00143529      487.974 
     0.0014355      447.674 
    0.00143572      410.852 
    0.00143586      388.292 
    0.00143601      367.294 
    0.00143615      347.801 
     0.0014363      329.738 
    0.00143646      311.018 
    0.00143664      292.052 
    0.00143682      274.843 
      0.001437      259.219 
    0.00143718      245.016 
    0.00143736      232.086 
    0.00143754      220.294 
    0.00143772      209.519 
     0.0014379      199.655 
    0.00143817      186.359 
    0.00143844      174.621 
    0.00143871      164.211 
    0.00143898      154.938 
    0.00143925      146.642 
    0.00143956      138.137 
    0.00143987       130.58 
    0.00144018      123.835 
    0.00144049      117.784 
     0.0014408      112.334 
    0.00144108       107.95 
    0.00144142      102.986 
    0.00144176       98.505 
    0.00144227      92.5583 
    0.00144279      87.3894 
     0.0014433      82.8596 
    0.00144387      78.4677 
    0.00144454      73.9334 
    0.00144522      70.0164 
    0.00144589      66.6036 
    0.00144657      63.6067 
    0.00144724      60.9567 
    0.00144814       57.869 
    0.00144904      55.1992 
    0.00144994      52.8698 
    0.00145084      50.8209 
    0.00145196      48.5846 
    0.00145309      46.6462 
    0.00145421      44.9445 
    0.00145534      43.4409 
    0.00145708      41.4366 
    0.00145882      39.7392 
    0.00146057      38.2743 
    0.00146234      36.9902 
     0.0014647       35.523 
    0.00146695       34.332 
     0.0014692      33.3001 
    0.00147258       31.985 
    0.00147595       30.885 
    0.00147955      29.8917 
     0.0014836      28.9445 
      0.001489      27.8889 
     0.0014944      27.0112 
     0.0014998      26.2661 
     0.0015079      25.3317 
      0.001516      24.5584 
     0.0015268      23.7058 
     0.0015376      22.9984 
      0.001552      22.2152 
       0.00157      21.4161 
      0.001588      20.7563 
     0.0016132      19.9945 
     0.0016429      19.2642 
      0.001678        18.56 
      0.001714      17.9625 
     0.0017581      17.3523 
     0.0018148      16.7035 
    0.00188374      16.0555 
    0.00191437      15.8133 
    0.00191582      15.8422 
    0.00191627      15.9122 
    0.00191664      16.0454 
    0.00191711      16.3316 
    0.00191757      16.6278 
    0.00191787      16.7063 
     0.0019179      16.7071 
    0.00191817      16.6525 
    0.00191854      16.4381 
    0.00191901      16.1145 
    0.00191939      15.9394 
    0.00191976      15.8453 
    0.00192069      15.7759 
    0.00194594      15.5632 
     0.0019992      15.1983 
    0.00200025      15.2159 
    0.00200091      15.3032 
    0.00200142      15.4891 
    0.00200205      15.7848 
     0.0020024      15.8493 
    0.00200272      15.7953 
    0.00200364      15.3741 
    0.00200419      15.2325 
    0.00200506      15.1707 
    0.00203884      14.9352 
    0.00216332      14.2187 
    0.00242635      12.8368 
     0.0025093      12.3223 
     0.0025639      11.9009 
     0.0026017      11.5317 
     0.0026311      11.1691 
     0.0026521      10.8439 
     0.0026689      10.5237 
     0.0026815      10.2335 
     0.0026941      9.88399 
    0.00270355      9.56845 
      0.002713      9.19118 
     0.0027193      8.89491 
     0.0027256      8.55268 
     0.0027319      8.15242 
    0.00273663      7.80514 
    0.00274135      7.40666 
     0.0027445       7.1073 
    0.00274765      6.77627 
     0.0027508      6.40884 
    0.00275395      5.99969 
    0.00275631      5.66209 
    0.00275868      5.29572 
    0.00276104       4.8985 
     0.0027634      4.47021 
    0.00276576      4.01339 
    0.00277023      3.11469 
    0.00277127       2.9138 
    0.00277232       2.7285 
    0.00277311      2.60576 
    0.00277364      2.53472 
    0.00277414      2.47749 
    0.00277461      2.43457 
    0.00277508      2.40502 
    0.00277555      2.39165 
    0.00277567      2.39121 
    0.00277608      2.39982 
    0.00277637      2.41656 
    0.00277666      2.44334 
    0.00277695       2.4814 
    0.00277723      2.53214 
    0.00277752       2.5971 
    0.00277781      2.67805 
     0.0027781      2.77699 
    0.00277834      2.87575 
    0.00277859      2.99032 
    0.00277883       3.1224 
    0.00277907      3.27386 
    0.00277931      3.44682 
    0.00277956      3.64367 
     0.0027798      3.86709 
    0.00278004      4.12009 
    0.00278029      4.41516 
    0.00278046      4.63337 
    0.00278063      4.87037 
    0.00278079       5.1277 
    0.00278096      5.40699 
    0.00278113      5.71004 
    0.00278129      6.03882 
    0.00278145      6.38528 
    0.00278161      6.74927 
    0.00278177      7.14239 
    0.00278193      7.56705 
    0.00278208      8.02586 
    0.00278224       8.5217 
     0.0027824      9.05772 
    0.00278256      9.63739 
     0.0027827      10.1996 
    0.00278289      11.0143 
    0.00278308      11.9108 
    0.00278327      12.8982 
    0.00278346      13.9867 
    0.00278364      15.1877 
    0.00278383      16.5146 
    0.00278402       17.982 
    0.00278421       19.607 
    0.00278434      20.7872 
    0.00278446      22.0524 
    0.00278459      23.4094 
    0.00278477      25.5042 
    0.00278494      27.7518 
    0.00278511      30.2356 
    0.00278529       32.985 
     0.0027854       34.981 
    0.00278552      37.1199 
    0.00278568      40.3993 
    0.00278584      43.8995 
      0.002786      47.7574 
    0.00278615      52.0148 
    0.00278631      56.7163 
    0.00278646      61.7312 
     0.0027866      66.8599 
    0.00278675      72.4773 
    0.00278689      78.6302 
    0.00278703      85.3695 
    0.00278717      92.7477 
    0.00278731      100.822 
    0.00278746      109.647 
     0.0027876      119.279 
    0.00278774      129.772 
    0.00278788      141.174 
    0.00278801      152.579 
    0.00278814      164.319 
    0.00278826      176.844 
    0.00278843      194.771 
     0.0027886      214.061 
    0.00278879      237.281 
    0.00278898      261.889 
    0.00278926       300.64 
    0.00278969      359.461 
    0.00278991      388.144 
    0.00279007      407.901 
    0.00279024      425.602 
    0.00279038      439.248 
    0.00279053      450.637 
    0.00279068      459.549 
    0.00279083      465.828 
    0.00279099      469.673 
    0.00279109       470.27 
    0.00279122      469.219 
    0.00279137       465.43 
    0.00279153       459.07 
    0.00279168      450.394 
    0.00279183        439.7 
    0.00279206      420.599 
    0.00279221      406.318 
    0.00279251        376.6 
    0.00279309      315.574 
    0.00279339      287.034 
    0.00279364      264.416 
    0.00279389      243.706 
    0.00279414      224.939 
     0.0027944       208.05 
    0.00279465      192.915 
    0.00279484      182.624 
    0.00279505      172.161 
    0.00279526      162.631 
    0.00279547      153.943 
    0.00279568      146.015 
    0.00279589      138.767 
     0.0027961      132.132 
    0.00279641      123.189 
    0.00279673      115.298 
    0.00279704      108.304 
    0.00279736      102.077 
    0.00279767      96.5106 
    0.00279799       91.513 
    0.00279837      86.1265 
    0.00279878      80.9636 
    0.00279919      76.4051 
    0.00279961      72.3566 
    0.00280002      68.7419 
    0.00280051      64.9381 
    0.00280094       61.975 
    0.00280137      59.3013 
    0.00280201      55.7514 
    0.00280265      52.6625 
    0.00280329      49.9536 
    0.00280398      47.3923 
    0.00280477      44.8405 
    0.00280556      42.6142 
    0.00280635      40.6571 
    0.00280713      38.9246 
    0.00280792      37.3816 
    0.00280897      35.5703 
    0.00281002      33.9922 
    0.00281107      32.6063 
    0.00281212      31.3805 
    0.00281337      30.0958 
    0.00281462      28.9675 
    0.00281629      27.6595 
    0.00281795      26.5366 
    0.00281961      25.5695 
    0.00282125      24.7281 
    0.00282371      23.6442 
    0.00282614      22.7414 
     0.0028285       21.987 
    0.00283165      21.1318 
     0.0028348      20.4115 
    0.00283795      19.7965 
    0.00284267      19.0258 
    0.00284793       18.331 
     0.0028516      17.9203 
     0.0028579      17.3261 
     0.0028642      16.8385 
    0.00287365        16.25 
     0.0028831      15.7836 
     0.0028957      15.2915 
     0.0029083      14.9022 
     0.0029251      14.4897 
     0.0029461      14.0884 
     0.0029713      13.7136 
     0.0030049      13.3254 
     0.0030448      12.9623 
     0.0031015      12.5474 
     0.0031897      12.0194 
    0.00340915      10.8304 
    0.00349154      10.3194 
    0.00354832      9.92136 
    0.00354953       9.9519 
    0.00355086      10.0294 
    0.00355095        10.03 
    0.00355176      9.99129 
    0.00355306      9.89963 
    0.00355599      9.86013 
    0.00358161      9.67841 
    0.00358421      9.67255 
    0.00358695      9.70154 
    0.00358784      9.74446 
    0.00358838      9.80346 
    0.00358875      9.88022 
    0.00358899      9.96409 
    0.00358926      10.1058 
    0.00358947      10.2781 
    0.00358969      10.5216 
    0.00358984      10.7335 
    0.00358998      10.9918 
    0.00359012      11.3011 
    0.00359027      11.6645 
    0.00359044      12.1585 
    0.00359061      12.7213 
    0.00359086      13.6767 
    0.00359124      15.1155 
    0.00359141      15.7035 
    0.00359158      16.1857 
     0.0035917      16.4297 
    0.00359181       16.598 
    0.00359196      16.7055 
      0.003592      16.7107 
    0.00359211      16.6767 
    0.00359222      16.5654 
    0.00359233      16.3778 
    0.00359251      15.9643 
    0.00359268      15.4255 
    0.00359285      14.8013 
    0.00359335      12.9249 
    0.00359351       12.356 
    0.00359367      11.8484 
    0.00359382      11.4596 
    0.00359396       11.125 
    0.00359411      10.8426 
    0.00359425      10.6086 
    0.00359447      10.3362 
    0.00359468      10.1405 
    0.00359494      9.97992 
    0.00359529      9.84822 
    0.00359575      9.75217 
    0.00359665      9.66556 
    0.00359842      9.59652 
    0.00360256      9.53207 
     0.0036181      9.41781 
    0.00363443      9.35495 
    0.00363851      9.35192 
    0.00364668      9.36995 
    0.00365484      9.43581 
    0.00366097      9.53335 
    0.00366709      9.69312 
    0.00367118      9.84847 
    0.00367526      10.0575 
    0.00367832        10.26 
    0.00368132      10.5069 
    0.00368428      10.8094 
    0.00368725      11.1879 
    0.00368995      11.6155 
    0.00369175      11.9555 
    0.00369355      12.3469 
    0.00369531      12.7895 
    0.00369705      13.2934 
    0.00369879      13.8785 
    0.00370052      14.5599 
    0.00370185      15.1575 
    0.00370323      15.8604 
     0.0037046      16.6608 
    0.00370598      17.5753 
    0.00370736      18.6236 
    0.00370874      19.8299 
    0.00370966       20.736 
    0.00371057      21.7354 
    0.00371149      22.8396 
    0.00371241       24.062 
    0.00371333      25.4179 
    0.00371425      26.9247 
    0.00371517      28.6025 
    0.00371609      30.4745 
     0.0037168      32.0815 
    0.00371751      33.8358 
    0.00371823      35.7531 
    0.00371894      37.8505 
    0.00371966      40.1467 
    0.00372037      42.6616 
    0.00372109      45.4163 
     0.0037218      48.4348 
    0.00372257      51.9943 
    0.00372333      55.9266 
     0.0037241       60.267 
    0.00372486      65.0505 
    0.00372563      70.3105 
     0.0037264      76.0701 
    0.00372716      82.3402 
    0.00372793      89.1216 
    0.00372869      96.3982 
    0.00372971      106.786 
    0.00373145      125.585 
    0.00373256      137.573 
     0.0037333      145.107 
    0.00373404      151.961 
    0.00373478      157.854 
    0.00373533      161.489 
    0.00373589      164.351 
    0.00373642      166.318 
    0.00373696      167.462 
    0.00373732      167.762 
    0.00373801      167.309 
    0.00373869      165.556 
    0.00373938      162.621 
    0.00374007      158.676 
    0.00374099      152.188 
    0.00374191      144.727 
    0.00374502      117.319 
    0.00374609      108.397 
    0.00374717      100.098 
    0.00374824      92.4948 
    0.00374931      85.5991 
    0.00375038      79.3853 
     0.0037513      74.5673 
    0.00375222      70.1819 
    0.00375314      66.1924 
    0.00375406      62.5627 
    0.00375497      59.2582 
    0.00375589      56.2468 
    0.00375681      53.4988 
    0.00375773      50.9875 
    0.00375911      47.6122 
    0.00376049      44.6448 
    0.00376186      42.0252 
    0.00376324      39.7033 
    0.00376462      37.6368 
      0.003766      35.7905 
    0.00376738      34.1344 
    0.00376875      32.6436 
    0.00377059      30.8767 
    0.00377243      29.3243 
    0.00377437      27.8815 
    0.00377631      26.6085 
    0.00377825      25.4804 
    0.00378019      24.4746 
    0.00378221      23.5304 
    0.00378526      22.2948 
     0.0037883      21.2373 
    0.00379108      20.4009 
    0.00379385       19.661 
    0.00379774      18.7609 
    0.00380182      17.9563 
    0.00380591       17.266 
    0.00380999      16.6677 
    0.00381407      16.1445 
     0.0038202      15.4725 
    0.00382632      14.9071 
    0.00383245      14.4245 
    0.00383908      13.9759 
    0.00384674      13.5315 
     0.0038549      13.1256 
    0.00386562      12.6743 
    0.00387685      12.2758 
    0.00389216      11.8206 
     0.0039026       11.559 
    0.00390311      11.5556 
    0.00390466      11.5772 
    0.00390581      11.5351 
    0.00390754       11.442 
    0.00392303       11.102 
    0.00394662       10.663 
    0.00397649      10.1827 
    0.00401779      9.60191 
    0.00407564      8.86697 
    0.00412249      8.31868 
    0.00415652      7.96926 
    0.00417451      7.82025 
     0.0041925      7.71645 
    0.00420658      7.68433 
    0.00421597      7.69841 
    0.00422379      7.73867 
    0.00423362      7.83853 
    0.00423756      7.90514 
    0.00423883      7.96009 
    0.00423994      8.06999 
    0.00424073      8.14596 
    0.00424122      8.15887 
    0.00424203      8.11948 
    0.00424323      8.04832 
    0.00424394      8.03918 
    0.00424605      8.07261 
     0.0042526      8.25299 
    0.00425836      8.46087 
    0.00426321      8.67771 
    0.00426807       8.9383 
    0.00427209      9.19323 
     0.0042761      9.48913 
    0.00428012      9.83273 
    0.00428414       10.231 
    0.00428816      10.6933 
    0.00429218      11.2294 
    0.00429519      11.6878 
    0.00429821      12.2009 
    0.00430122       12.776 
    0.00430423      13.4208 
    0.00430725      14.1446 
    0.00431026       14.958 
    0.00431328      15.8735 
    0.00431629      16.9052 
     0.0043193      18.0697 
    0.00432232      19.3859 
    0.00432433      20.3578 
    0.00432634      21.4148 
    0.00432834      22.5636 
    0.00433035      23.8047 
    0.00433236       25.163 
    0.00433437      26.6455 
    0.00433638      28.2617 
    0.00433839      30.0244 
     0.0043404      31.9477 
    0.00434241      34.0467 
    0.00434442      36.3379 
    0.00434643      38.8387 
    0.00434844      41.5675 
    0.00435045      44.5438 
    0.00435246      47.7872 
    0.00435446      51.3174 
    0.00435647      55.1535 
    0.00435848      59.3129 
    0.00436049      63.8099 
     0.0043625      68.6551 
    0.00436451       73.868 
    0.00436752      82.3198 
    0.00437054      91.4526 
    0.00437472      105.001 
    0.00438017      122.878 
    0.00438326      132.369 
    0.00438527       137.88 
    0.00438728      142.713 
    0.00438929      146.728 
    0.00439105      149.494 
    0.00439281      151.476 
    0.00439456      152.677 
    0.00439632      153.093 
    0.00439825      152.652 
    0.00440017      151.353 
     0.0044021      149.281 
    0.00440402      146.513 
    0.00440687      141.441 
    0.00440972      135.549 
    0.00442144      108.649 
    0.00442546      99.9794 
    0.00442947      92.0007 
    0.00443249      86.5072 
     0.0044355      81.4328 
    0.00443852      76.7623 
    0.00444153      72.4731 
    0.00444454      68.5387 
    0.00444756       64.931 
    0.00445158      60.5813 
     0.0044556      56.6967 
    0.00445961      53.2227 
    0.00446363      50.1046 
    0.00446765      47.2997 
    0.00447167      44.7661 
    0.00447569      42.4715 
    0.00447971      40.3845 
    0.00448372      38.4812 
    0.00448975      35.9209 
    0.00449578      33.6607 
    0.00450181      31.6503 
    0.00450784      29.8484 
    0.00451386      28.2213 
    0.00451989      26.7415 
    0.00452692      25.1719 
    0.00453328      23.8704 
    0.00454015      22.5742 
    0.00454869      21.0882 
    0.00455706      19.7393 
    0.00456543      18.4752 
    0.00457548      17.0475 
    0.00458552      15.7025 
    0.00459477      14.5444 
    0.00460242      13.6725 
    0.00460815      13.1064 
    0.00461216      12.7848 
     0.0046153      12.5958 
    0.00461845      12.4843 
    0.00462009      12.4674 
    0.00462215      12.4976 
    0.00462421      12.5942 
    0.00462627      12.7768 
    0.00462781      12.9852 
    0.00462929      13.2549 
    0.00463074      13.5984 
    0.00463219      14.0342 
    0.00463364      14.5794 
    0.00463461      15.0163 
    0.00463558      15.5222 
    0.00463647      16.0598 
    0.00463729      16.6206 
    0.00463812      17.2529 
    0.00463894      17.9655 
    0.00463976      18.7687 
    0.00464058       19.674 
    0.00464141      20.6949 
    0.00464223      21.8469 
    0.00464297      23.0105 
    0.00464363      24.1581 
    0.00464429      25.4249 
    0.00464495      26.8243 
     0.0046456      28.3715 
    0.00464626      30.0839 
    0.00464692       31.981 
    0.00464758      34.0849 
    0.00464816      36.1147 
    0.00464865      38.0096 
    0.00464914      40.0611 
    0.00464964       42.284 
    0.00465013      44.6951 
    0.00465062      47.3129 
    0.00465112      50.1576 
    0.00465161      53.2511 
    0.00465206      56.3255 
    0.00465268      60.9228 
     0.0046533      66.0384 
    0.00465392      71.7348 
    0.00465433       75.889 
    0.00465474      80.3543 
    0.00465515      85.1543 
    0.00465571      92.2098 
    0.00465626      99.9851 
    0.00465682      108.548 
    0.00465737      117.967 
    0.00465793      128.309 
    0.00465848      139.638 
    0.00465904      152.007 
    0.00465959      165.456 
    0.00466015      180.002 
     0.0046607      195.623 
    0.00466129      213.206 
    0.00466216       240.84 
     0.0046641       305.95 
    0.00466485      329.446 
    0.00466548      347.267 
    0.00466596      358.913 
    0.00466643      368.773 
    0.00466691      376.618 
    0.00466736      382.047 
     0.0046678      385.374 
    0.00466823      386.758 
    0.00466866      386.295 
    0.00466908      384.152 
    0.00466971      378.059 
    0.00467034      368.992 
    0.00467076        361.6 
    0.00467161       344.43 
    0.00467292       314.06 
    0.00467457       275.25 
    0.00467556       253.34 
    0.00467655      233.104 
    0.00467724       219.89 
    0.00467799      206.924 
    0.00467873      194.982 
    0.00467947      184.014 
    0.00468021      173.956 
    0.00468095      164.738 
    0.00468169      156.291 
    0.00468243      148.546 
    0.00468321      141.061 
    0.00468403      133.873 
    0.00468486       127.32 
    0.00468568      121.334 
    0.00468691       113.29 
    0.00468815      106.217 
    0.00468938      99.9664 
    0.00469062      94.4185 
    0.00469185      89.4723 
    0.00469309      85.0432 
    0.00469432      81.0609 
    0.00469597      76.3452 
    0.00469759      72.2653 
    0.00469921      68.6555 
    0.00470083      65.4463 
    0.00470245      62.5735 
    0.00470461      59.1791 
    0.00470673      56.2655 
    0.00470884      53.6956 
    0.00471096      51.4164 
    0.00471308       49.375 
    0.00471617      46.7636 
    0.00471925      44.5066 
    0.00472234      42.5378 
    0.00472543      40.8061 
    0.00472954      38.7983 
    0.00473365      37.0694 
    0.00473777       35.565 
    0.00474188       34.244 
      0.004746      33.0743 
    0.00475094      31.8359 
    0.00475824      30.2716 
    0.00476534       28.984 
    0.00477182      27.9692 
    0.00477876      27.0165 
    0.00478698       26.034 
     0.0047912       25.597 
    0.00479199      25.5707 
    0.00479365      25.6745 
     0.0047945       25.577 
    0.00479609      25.1624 
    0.00479783       24.933 
    0.00480864      23.9952 
    0.00482173      23.0322 
    0.00483456      22.2251 
     0.0048515      21.3196 
     0.0048695      20.5071 
    0.00488693      19.8312 
    0.00491038      19.0507 
    0.00493512       18.347 
    0.00496706      17.5703 
    0.00500887      16.7081 
    0.00505765       15.837 
    0.00517989       13.847 
    0.00521626      13.1773 
    0.00524041      12.6638 
    0.00526316      12.0967 
    0.00528023      11.5904 
     0.0052939      11.1125 
    0.00530298       10.747 
    0.00531284       10.294 
    0.00532114      9.85579 
    0.00532698      9.53025 
    0.00532736      9.52321 
     0.0053279      9.54669 
    0.00532821      9.59323 
    0.00532854      9.68406 
    0.00532886      9.83115 
    0.00532913       10.002 
    0.00532945      10.2609 
     0.0053302      10.9588 
    0.00533049      11.1782 
    0.00533075      11.2966 
    0.00533097      11.3282 
     0.0053312      11.2895 
    0.00533146      11.1601 
     0.0053317      10.9706 
    0.00533206      10.6035 
    0.00533259      10.0393 
    0.00533283      9.81114 
    0.00533314      9.56726 
    0.00533345      9.38133 
    0.00533381      9.23117 
    0.00533416      9.13133 
     0.0053348      9.02475 
    0.00533601      8.90892 
    0.00534176      8.44014 
    0.00534652      8.01748 
    0.00535124      7.55653 
     0.0053559      7.05256 
    0.00536035      6.52412 
    0.00536459      5.97797 
    0.00537306      4.82078 
    0.00537518      4.55237 
    0.00537667      4.38502 
    0.00537815       4.2453 
    0.00537926      4.16684 
    0.00538037      4.11914 
    0.00538112      4.10912 
    0.00538175      4.11769 
    0.00538239      4.14518 
    0.00538302        4.195 
    0.00538366      4.27109 
    0.00538429      4.37808 
    0.00538477      4.48187 
    0.00538525      4.60883 
    0.00538572      4.76213 
     0.0053862      4.94536 
    0.00538665      5.14701 
    0.00538709      5.38215 
    0.00538754      5.65516 
    0.00538798      5.97104 
    0.00538831      6.23957 
    0.00538865       6.5382 
    0.00538898      6.87003 
    0.00538932      7.23846 
    0.00538965      7.64731 
    0.00538991      7.99596 
    0.00539021      8.43033 
     0.0053905       8.9065 
     0.0053908      9.42849 
     0.0053911      10.0007 
    0.00539139      10.6282 
    0.00539169      11.3165 
    0.00539199      12.0716 
    0.00539225      12.8081 
     0.0053926      13.8796 
    0.00539283       14.663 
    0.00539307      15.5072 
     0.0053933      16.4171 
    0.00539353      17.3983 
    0.00539377      18.4569 
      0.005394      19.5994 
    0.00539428      21.1272 
    0.00539457      22.8071 
    0.00539486      24.6558 
    0.00539514      26.6915 
    0.00539543      28.9351 
    0.00539571      31.4093 
      0.005396      34.1396 
    0.00539629       37.154 
    0.00539657      40.4841 
    0.00539686      44.1637 
    0.00539713      48.0723 
    0.00539739      52.0298 
    0.00539764      56.3542 
     0.0053979      61.0769 
    0.00539815      66.2311 
    0.00539841      71.8499 
    0.00539866      77.9677 
    0.00539891      84.6157 
    0.00539917      91.8237 
    0.00539942      99.6165 
    0.00539968      108.013 
    0.00539995      117.802 
    0.00540024      128.727 
    0.00540052      140.397 
    0.00540091      157.021 
    0.00540139      179.426 
    0.00540229      223.093 
     0.0054027      241.593 
    0.00540304      256.268 
    0.00540334      267.298 
    0.00540363      276.833 
    0.00540392      284.643 
    0.00540415      289.513 
    0.00540442      293.457 
    0.00540468      295.779 
    0.00540492      296.491 
    0.00540525      295.285 
    0.00540549      292.896 
    0.00540586      287.185 
    0.00540623      279.311 
    0.00540659      269.748 
    0.00540705      256.026 
    0.00540858      206.873 
    0.00540909      191.534 
    0.00540962      176.759 
       0.00541       166.95 
    0.00541038      157.842 
    0.00541076      149.418 
    0.00541114      141.645 
    0.00541152      134.484 
     0.0054119      127.891 
    0.00541248       118.97 
     0.0054129      113.034 
    0.00541332      107.608 
    0.00541375      102.642 
    0.00541438      95.9541 
    0.00541502      90.0591 
    0.00541565      84.8408 
    0.00541629      80.2015 
    0.00541693      76.0594 
    0.00541756       72.346 
     0.0054182      69.0034 
    0.00541883      65.9833 
    0.00541955      62.9204 
    0.00542042      59.5905 
     0.0054213      56.6468 
    0.00542217      54.0286 
    0.00542275       52.439 
    0.00542392      49.5814 
    0.00542482      47.6278 
    0.00542617      45.0445 
    0.00542752      42.8051 
    0.00542887      40.8462 
    0.00543022       39.121 
    0.00543165      37.5071 
    0.00543324       35.928 
    0.00543483      34.5368 
    0.00543642      33.3026 
    0.00543854      31.8595 
    0.00544066      30.6068 
    0.00544278      29.5099 
    0.00544595      28.0992 
    0.00544927       26.867 
    0.00545284      25.7457 
    0.00545642      24.7919 
    0.00545997      23.9782 
    0.00546468      23.0574 
    0.00546929       22.296 
    0.00547604      21.3682 
     0.0054824      20.6479 
    0.00548876      20.0397 
    0.00549723      19.3604 
    0.00550571      18.7943 
    0.00551842      18.0994 
    0.00553113      17.5346 
    0.00554764       16.938 
     0.0055491      16.9088 
    0.00555017      16.9602 
    0.00555175      17.1339 
    0.00555189       17.136 
    0.00555271      17.0632 
    0.00555412       16.813 
    0.00555551      16.7027 
    0.00557292      16.2171 
    0.00559723      15.6605 
    0.00563046      15.0224 
    0.00565306      14.6402 
    0.00565447      14.6893 
    0.00565588      14.7695 
    0.00565683      14.7184 
    0.00565855      14.5627 
    0.00566187      14.4835 
    0.00568305      14.1317 
    0.00568453      14.1825 
    0.00568592      14.2548 
    0.00568695       14.195 
    0.00568855      14.0548 
     0.0056919      13.9701 
     0.0057209      13.4073 
    0.00573721      13.0193 
    0.00575075      12.6156 
    0.00576117      12.2163 
    0.00576398      12.1002 
     0.0057645      12.0924 
    0.00576579      12.1359 
    0.00576667      12.1689 
    0.00576748      12.1222 
    0.00576932      11.8584 
    0.00577095      11.7245 
    0.00577637      11.3614 
     0.0057812      10.9635 
    0.00578522      10.5545 
    0.00578841       10.157 
    0.00579074      9.81436 
    0.00579292       9.4402 
     0.0057951      9.00097 
    0.00579694      8.56475 
    0.00579862      8.10359 
    0.00579974      7.75492 
    0.00580071      7.42024 
    0.00580195      6.94496 
    0.00580278      6.59466 
     0.0058039      6.07502 
    0.00580477      5.63223 
    0.00580564      5.15941 
    0.00580724      4.26449 
    0.00580768      4.04039 
    0.00580797      3.90651 
    0.00580826      3.79208 
    0.00580854      3.70768 
    0.00580873      3.67131 
    0.00580894      3.65534 
    0.00580911      3.66577 
    0.00580925      3.69422 
    0.00580939      3.74417 
    0.00580953      3.81957 
    0.00580967      3.92508 
    0.00580976      4.01482 
    0.00580988      4.15511 
    0.00580997      4.28183 
    0.00581006      4.42929 
    0.00581015      4.59984 
    0.00581024      4.79603 
    0.00581033      5.02082 
    0.00581042      5.27725 
    0.00581051      5.56886 
     0.0058106      5.89944 
    0.00581069       6.2732 
    0.00581077      6.64269 
    0.00581085      7.02426 
    0.00581092      7.44411 
    0.00581099      7.90558 
    0.00581107      8.41183 
    0.00581114      8.96655 
    0.00581122      9.57342 
    0.00581129      10.2365 
    0.00581136      10.9597 
    0.00581144      11.7476 
    0.00581151      12.6043 
     0.0058116      13.7072 
    0.00581169      14.9196 
    0.00581177      16.2495 
    0.00581186      17.7048 
    0.00581195      19.2937 
    0.00581203      20.9039 
    0.00581211      22.5791 
    0.00581219      24.3795 
    0.00581227       26.311 
    0.00581234      28.3773 
    0.00581244      31.1781 
    0.00581254      34.0222 
    0.00581263      37.0722 
    0.00581272      40.3306 
    0.00581281      43.7982 
    0.00581291      47.4734 
      0.005813       51.352 
    0.00581314      57.5359 
    0.00581328      64.1294 
    0.00581342      71.0818 
    0.00581363      82.3531 
    0.00581416      110.978 
    0.00581436      121.081 
    0.00581451      128.116 
    0.00581467      135.003 
    0.00581483      141.208 
      0.005815      146.317 
    0.00581513      149.438 
    0.00581526        151.8 
     0.0058154      153.538 
    0.00581555      154.267 
    0.00581569      154.007 
    0.00581584      152.804 
    0.00581599      150.524 
    0.00581615      147.332 
    0.00581626      144.758 
    0.00581646      138.727 
    0.00581667      131.799 
    0.00581702      119.152 
    0.00581749      102.117 
    0.00581772      94.1588 
    0.00581795         86.8 
    0.00581813      81.7245 
     0.0058183      77.0442 
    0.00581848      72.7563 
    0.00581865      68.8479 
    0.00581882      65.2983 
      0.005819      62.0826 
    0.00581917      59.1723 
    0.00581935      56.5396 
    0.00581955      53.7489 
    0.00581973      51.5674 
       0.00582      48.6722 
    0.00582027      46.1614 
    0.00582054      43.9698 
    0.00582081      42.0439 
    0.00582104      40.5785 
    0.00582132      38.9797 
     0.0058216      37.5553 
    0.00582202      35.6889 
    0.00582244      34.0865 
    0.00582286      32.6964 
    0.00582328      31.4645 
    0.00582372      30.3528 
     0.0058243      29.0653 
    0.00582488      27.9582 
    0.00582546      26.9961 
     0.0058261       26.074 
    0.00582706      24.9026 
    0.00582802      23.9285 
    0.00582909        23.02 
    0.00583015      22.2548 
    0.00583122      21.6015 
    0.00583229      21.0373 
    0.00583363      20.4278 
    0.00583565      19.6743 
    0.00583767      19.0639 
    0.00583984      18.5218 
    0.00584202      18.0711 
    0.00584457      17.6323 
    0.00584784      17.1701 
    0.00585219      16.6799 
    0.00585684      16.2675 
    0.00586382      15.7899 
    0.00587079      15.4231 
    0.00588009      15.0424 
    0.00588939      14.7414 
    0.00590334      14.3832 
    0.00592193      14.0096 
    0.00594518      13.6345 
    0.00598703      13.0809 
    0.00608699      11.8854 
    0.00612554      11.3593 
    0.00615639      10.8654 
    0.00617842      10.4484 
     0.0061982      10.0063 
    0.00620173      9.92473 
    0.00620236      9.92128 
    0.00620376      9.96575 
    0.00620477      9.99893 
     0.0062057      9.95754 
    0.00620747      9.79852 
    0.00620976      9.70912 
    0.00622336      9.30176 
    0.00623337      8.95619 
    0.00624311      8.56985 
    0.00625182      8.17068 
    0.00625554      7.99285 
    0.00625618       7.9813 
    0.00625695      8.00509 
    0.00625851      8.14381 
    0.00625876      8.14937 
    0.00625933      8.11617 
       0.00626      8.00382 
      0.006261      7.79643 
    0.00626165      7.69529 
    0.00626262      7.59957 
    0.00626911      7.16735 
    0.00627434      6.78449 
    0.00627946      6.36363 
    0.00628321      6.01998 
    0.00628697      5.64175 
    0.00629045      5.25587 
    0.00629393       4.8316 
    0.00629624      4.52517 
    0.00629843      4.21856 
    0.00630061      3.89352 
    0.00630334      3.46038 
     0.0063058      3.04661 
    0.00630866      2.54133 
    0.00631207      1.93286 
    0.00631344      1.70101 
    0.00631426      1.56988 
    0.00631508      1.44768 
    0.00631562      1.37272 
    0.00631622      1.29761 
    0.00631672      1.24323 
    0.00631721      1.19672 
    0.00631771      1.15947 
    0.00631804      1.14059 
    0.00631837      1.12709 
     0.0063187      1.11951 
    0.00631887      1.11826 
    0.00631922      1.12152 
    0.00631947      1.12953 
    0.00631973      1.14279 
    0.00631999      1.16175 
    0.00632025      1.18691 
    0.00632051       1.2188 
    0.00632076      1.25801 
    0.00632102      1.30521 
    0.00632128      1.36108 
    0.00632148      1.41086 
    0.00632168      1.46671 
    0.00632188      1.52905 
    0.00632208      1.59831 
    0.00632228      1.67501 
    0.00632248      1.75963 
    0.00632268      1.85274 
    0.00632288      1.95494 
    0.00632306       2.0563 
    0.00632324      2.16621 
    0.00632343      2.28526 
    0.00632361      2.41402 
    0.00632379      2.55316 
    0.00632397      2.70334 
    0.00632415      2.86533 
    0.00632434      3.03989 
    0.00632458      3.29705 
    0.00632483      3.58099 
    0.00632507      3.89425 
    0.00632532      4.23961 
    0.00632556      4.62017 
    0.00632579      5.00689 
    0.00632601      5.41209 
    0.00632623      5.85345 
    0.00632645      6.33426 
    0.00632667      6.85796 
    0.00632688      7.42849 
     0.0063271      8.05009 
    0.00632732      8.72749 
    0.00632754      9.46583 
    0.00632776      10.2709 
    0.00632798      11.1488 
    0.00632819      12.1068 
    0.00632841      13.1524 
    0.00632863      14.2941 
    0.00632885      15.5412 
    0.00632907       16.904 
    0.00632929       18.394 
     0.0063295      20.0235 
    0.00632972      21.8062 
    0.00632994      23.7572 
    0.00633016      25.8928 
    0.00633038      28.2308 
     0.0063306      30.7904 
    0.00633081      33.5926 
    0.00633103      36.6593 
    0.00633125       40.014 
    0.00633147       43.681 
    0.00633166      47.1663 
    0.00633185      50.9271 
    0.00633204      54.9809 
    0.00633223      59.3441 
    0.00633242      64.0327 
    0.00633262      69.0607 
    0.00633281      74.4404 
      0.006333      80.1806 
    0.00633325      88.4052 
    0.00633351      97.2814 
     0.0063338      108.202 
    0.00633409      119.889 
    0.00633438      132.241 
    0.00633483       152.08 
    0.00633544      180.112 
    0.00633575      193.591 
    0.00633605      205.634 
    0.00633633      216.045 
    0.00633661      225.172 
    0.00633689      232.783 
    0.00633712      237.718 
    0.00633738      241.929 
    0.00633764      244.512 
    0.00633789      245.458 
    0.00633814      244.977 
    0.00633838      243.185 
    0.00633863      240.189 
    0.00633887      236.124 
     0.0063392      229.296 
    0.00633953      221.201 
    0.00634002      207.486 
    0.00634117       173.45 
    0.00634166      159.695 
    0.00634215      146.985 
    0.00634264      135.451 
    0.00634297      128.424 
     0.0063433      121.909 
    0.00634362      115.882 
    0.00634411      107.693 
    0.00634446      102.491 
    0.00634482      97.4661 
    0.00634519      92.8627 
    0.00634573      86.6605 
    0.00634628      81.1937 
    0.00634682       76.357 
    0.00634737      72.0602 
    0.00634792      68.2272 
    0.00634846      64.7938 
    0.00634901      61.7061 
    0.00634937       59.817 
     0.0063501      56.3931 
    0.00635085      53.2888 
     0.0063516      50.5482 
    0.00635235      48.1139 
     0.0063531      45.9395 
    0.00635385      43.9872 
    0.00635488      41.6292 
    0.00635604      39.3105 
     0.0063572      37.2985 
    0.00635836      35.5371 
    0.00635952      33.9838 
    0.00636074       32.529 
    0.00636211      31.1041 
    0.00636347      29.8468 
    0.00636484      28.7299 
    0.00636665      27.4216 
     0.0063686      26.2119 
    0.00637066      25.0971 
    0.00637273      24.1271 
    0.00637479       23.275 
    0.00637703      22.4597 
    0.00637944      21.6866 
    0.00638306      20.6914 
    0.00638667      19.8515 
    0.00639029      19.1326 
     0.0063951      18.3198 
    0.00639924      17.7269 
    0.00640337      17.2102 
    0.00640888      16.6142 
    0.00641439      16.1023 
    0.00642265      15.4567 
    0.00643092      14.9239 
    0.00643918      14.4786 
    0.00644745      14.1053 
    0.00645641      13.7721 
    0.00646261      13.5824 
    0.00647308      13.3404 
    0.00648238      13.2196 
    0.00648823      13.1956 
    0.00649526      13.2378 
    0.00650035      13.3264 
    0.00650587      13.4908 
    0.00651138      13.7444 
    0.00651551      14.0076 
    0.00651964      14.3479 
    0.00652378      14.7823 
    0.00652791      15.3322 
    0.00653066      15.7761 
    0.00653342      16.2931 
    0.00653618      16.8948 
    0.00653893      17.5949 
    0.00654169      18.4098 
    0.00654444      19.3585 
    0.00654651      20.1715 
    0.00654858      21.0836 
    0.00655064      22.1075 
    0.00655271      23.2573 
    0.00655457      24.4128 
    0.00655643       25.693 
    0.00655829      27.1113 
    0.00656015      28.6925 
    0.00656201       30.451 
    0.00656387      32.4037 
    0.00656573      34.5701 
    0.00656759      36.9708 
    0.00656945      39.6267 
    0.00657131      42.5578 
    0.00657324      45.9078 
     0.0065753       49.866 
    0.00657737      54.2185 
    0.00657944      58.9728 
     0.0065815        64.09 
    0.00658357      69.5197 
     0.0065906      88.9935 
    0.00659294       95.107 
    0.00659487      99.6386 
     0.0065968      103.543 
    0.00659872       106.68 
    0.00660017      108.459 
    0.00660155      109.672 
    0.00660334      110.537 
    0.00660424       110.67 
    0.00660615      110.313 
    0.00660806      109.157 
    0.00660997        107.3 
    0.00661188      104.891 
    0.00661443      101.053 
    0.00661994      91.5095 
    0.00662545      81.7774 
    0.00662959      75.0349 
    0.00663234       70.916 
     0.0066351       67.116 
    0.00663785      63.6305 
    0.00664061      60.4451 
    0.00664336      57.5396 
    0.00664612      54.8917 
    0.00664887      52.4784 
    0.00665301      49.2501 
    0.00665714      46.4307 
    0.00666127      43.9596 
    0.00666541       41.785 
    0.00666954      39.8629 
    0.00667367      38.1566 
    0.00667781      36.6351 
    0.00668332        34.85 
    0.00668883      33.2981 
    0.00669434      31.9395 
    0.00669985      30.7425 
    0.00670756       29.291 
    0.00671518      28.0661 
    0.00672313       26.964 
    0.00673281      25.8211 
    0.00673992      25.1128 
    0.00674153      25.0099 
    0.00674229      25.0593 
    0.00674273      25.1841 
    0.00674308       25.382 
    0.00674341      25.6758 
    0.00674372      26.0636 
     0.0067441      26.6879 
    0.00674476      28.0764 
    0.00674524      29.0322 
    0.00674555      29.4796 
    0.00674581      29.6927 
    0.00674598      29.7303 
    0.00674623       29.645 
    0.00674649      29.3722 
    0.00674684      28.7851 
    0.00674747      27.3733 
     0.0067479      26.4115 
    0.00674834      25.6261 
    0.00674867      25.1725 
    0.00674905      24.8081 
    0.00674946      24.5455 
    0.00675001      24.3484 
    0.00675101      24.1726 
    0.00675568      23.7517 
    0.00676603      23.0035 
    0.00678205      22.0412 
    0.00679991      21.1677 
    0.00682038       20.355 
     0.0068386      19.7555 
    0.00686257      19.1015 
    0.00688774      18.5367 
    0.00691598      18.0132 
    0.00695618      17.4118 
    0.00699551        16.94 
    0.00704927      16.4237 
    0.00710872      15.9725 
    0.00718729      15.5006 
    0.00728331      15.0519 
    0.00738636      14.6755 
    0.00740419      14.6403 
    0.00741261      14.6836 
    0.00741568      14.7667 
    0.00741744      14.8845 
    0.00741857      15.0364 
    0.00741925      15.1965 
     0.0074197      15.3598 
    0.00742014       15.607 
    0.00742044      15.8469 
    0.00742069      16.1147 
    0.00742094      16.4664 
    0.00742119      16.9277 
    0.00742137       17.364 
    0.00742156      17.8933 
    0.00742174      18.5304 
    0.00742193      19.2897 
    0.00742211      20.1845 
     0.0074223      21.2247 
     0.0074225      22.5354 
    0.00742266      23.6842 
    0.00742282      24.9383 
    0.00742306      26.9948 
    0.00742335      29.7831 
    0.00742375      33.6018 
    0.00742395      35.4089 
    0.00742415       37.051 
    0.00742433       38.328 
    0.00742448      39.2625 
    0.00742465      39.9869 
    0.00742481      40.4667 
    0.00742495      40.6588 
      0.007425      40.6795 
    0.00742518      40.5359 
    0.00742535      40.0819 
    0.00742551       39.373 
    0.00742567      38.4688 
    0.00742585      37.2225 
    0.00742605      35.6096 
    0.00742635      32.8934 
    0.00742684      28.1639 
     0.0074271      25.8641 
    0.00742734      23.9415 
     0.0074275      22.7871 
     0.0074277      21.4668 
    0.00742789      20.4163 
    0.00742807      19.5104 
    0.00742826      18.7393 
    0.00742844      18.0903 
    0.00742863      17.5492 
    0.00742882      17.1016 
    0.00742906      16.6259 
    0.00742931      16.2608 
    0.00742956      15.9807 
    0.00742985      15.7275 
     0.0074303       15.463 
    0.00743075       15.285 
    0.00743143      15.1061 
    0.00743256      14.9296 
    0.00743432      14.7825 
    0.00743739      14.6616 
    0.00744383      14.5609 
    0.00746563      14.4451 
      0.007559       14.177 
    0.00756118      14.2114 
    0.00756261      14.3434 
    0.00756379      14.4486 
    0.00756402      14.4523 
    0.00756497      14.3969 
    0.00756674      14.2135 
    0.00756852       14.161 
     0.0077324      13.7759 
    0.00791873      13.4089 
    0.00792094      13.4233 
    0.00792186       13.475 
     0.0079226      13.5777 
    0.00792444      14.0124 
    0.00792503      14.0627 
    0.00792562      14.0119 
    0.00792662      13.7738 
    0.00792733      13.6038 
    0.00792804      13.4919 
    0.00792897      13.4255 
    0.00793257      13.3886 
    0.00814664      12.9812 
    0.00814892      13.0173 
    0.00815103      13.0927 
    0.00815303      13.0194 
    0.00815546      12.9677 
    0.00830218      12.6302 
    0.00836965      12.4039 
    0.00840594      12.2218 
    0.00843099      12.0376 
    0.00844939      11.8397 
    0.00846166      11.6524 
    0.00847291      11.4105 
    0.00848057      11.1799 
    0.00848568      10.9785 
     0.0084908      10.7189 
    0.00849489      10.4498 
    0.00849795      10.1959 
    0.00850077      9.90782 
    0.00850332      9.58251 
    0.00850514      9.30096 
    0.00850677      9.00289 
     0.0085084      8.64864 
     0.0085098      8.28703 
    0.00851108      7.89598 
    0.00851194      7.59693 
    0.00851288      7.22712 
    0.00851365      6.88859 
    0.00851441      6.51444 
    0.00851518      6.10563 
    0.00851646      5.38974 
    0.00851686      5.18855 
    0.00851716      5.06641 
    0.00851736      5.00763 
    0.00851756      4.97487 
    0.00851766      4.97095 
    0.00851782      4.98432 
    0.00851797      5.02542 
    0.00851807      5.07118 
    0.00851821      5.16874 
    0.00851832      5.26982 
    0.00851843      5.39851 
    0.00851854      5.55852 
    0.00851865      5.75386 
    0.00851876      5.98897 
    0.00851887      6.26851 
    0.00851898      6.59755 
    0.00851909      6.98142 
     0.0085192      7.42579 
     0.0085193      7.87808 
    0.00851938      8.31333 
    0.00851947      8.79365 
    0.00851955      9.32193 
    0.00851964      9.90085 
    0.00851972      10.5333 
    0.00851981      11.2219 
    0.00851989      11.9692 
    0.00851997      12.7776 
    0.00852005      13.5677 
    0.00852017      14.8546 
    0.00852028      16.2673 
     0.0085204      17.8097 
    0.00852051      19.4835 
    0.00852064      21.4987 
    0.00852074      23.2277 
    0.00852084      25.0584 
      0.008521      27.9877 
    0.00852113      30.8004 
    0.00852132      34.7794 
    0.00852153      39.5676 
    0.00852219      55.3458 
    0.00852244      60.8038 
    0.00852261      64.3496 
    0.00852281      67.8943 
    0.00852295      70.2102 
    0.00852314      72.7506 
    0.00852329      74.2422 
    0.00852344      75.4368 
    0.00852359      76.2057 
    0.00852377      76.5638 
     0.0085238      76.5717 
    0.00852395      76.3688 
     0.0085241      75.7793 
    0.00852431      74.4444 
    0.00852451      72.5616 
    0.00852472      70.2295 
    0.00852502      66.1169 
    0.00852554      58.4641 
    0.00852594      52.3795 
    0.00852625      48.1474 
    0.00852646      45.4854 
    0.00852668      42.9734 
    0.00852689      40.6849 
     0.0085271      38.6163 
    0.00852731      36.8625 
     0.0085275      35.3772 
    0.00852778      33.4092 
    0.00852806      31.7159 
    0.00852835      30.2567 
    0.00852863      28.9944 
    0.00852898      27.6599 
    0.00852936      26.4266 
    0.00852975      25.3814 
    0.00853013      24.4848 
    0.00853051      23.7073 
    0.00853103      22.8176 
    0.00853154      22.0609 
    0.00853205      21.4092 
    0.00853281      20.5845 
     0.0085335      19.9641 
    0.00853454       19.195 
    0.00853558      18.5706 
    0.00853652      18.0945 
    0.00853794      17.5064 
    0.00853936      17.0309 
    0.00854127      16.5159 
    0.00854319      16.1064 
    0.00854575      15.6748 
     0.0085483      15.3355 
    0.00855188      14.9662 
    0.00855648      14.6111 
    0.00856134      14.3308 
      0.008569      14.0096 
    0.00857744      13.7603 
    0.00858638      13.5661 
    0.00859865      13.3705 
    0.00861705      13.1645 
    0.00864721      12.9409 
     0.0086968      12.7033 
    0.00876558      12.4717 
    0.00876774      12.5084 
    0.00876992      12.6006 
       0.00877      12.6008 
    0.00877144      12.5495 
    0.00877318      12.4695 
    0.00877861      12.4334 
     0.0089694      11.8709 
    0.00904943      11.5666 
    0.00910332      11.2969 
    0.00914616      11.0147 
    0.00918691      10.6662 
      0.009188      10.6856 
    0.00918865      10.7413 
    0.00918909      10.8246 
    0.00918952      10.9718 
    0.00918988      11.1634 
    0.00919025       11.433 
    0.00919057      11.7489 
     0.0091909      12.1308 
    0.00919143       12.859 
    0.00919187       13.458 
    0.00919215      13.7962 
    0.00919245      14.0871 
    0.00919275      14.2574 
      0.009193      14.3088 
    0.00919328      14.2545 
    0.00919351      14.1247 
    0.00919378       13.888 
    0.00919404      13.5875 
    0.00919448           13 
    0.00919509      12.1571 
    0.00919539      11.7946 
    0.00919572       11.456 
    0.00919608      11.1657 
    0.00919638       10.986 
    0.00919673      10.8327 
    0.00919721      10.7037 
    0.00919782      10.6162 
    0.00919844      10.5746 
    0.00920192      10.4967 
    0.00922707      10.1266 
    0.00924406      9.81661 
    0.00925513      9.57283 
    0.00926619      9.28428 
    0.00927726      8.93707 
    0.00928556      8.62629 
    0.00929441      8.23253 
     0.0093005      7.91484 
    0.00930625      7.57026 
    0.00931201       7.1737 
    0.00931607      6.85608 
    0.00932014      6.50273 
    0.00932396      6.13437 
    0.00932728      5.78213 
     0.0093306      5.39899 
    0.00933392      4.98601 
    0.00934139      4.00043 
    0.00934305      3.79729 
    0.00934429      3.66067 
    0.00934554      3.54569 
    0.00934637      3.48614 
     0.0093472      3.44494 
    0.00934806       3.4271 
    0.00934813      3.42698 
    0.00934886      3.43949 
    0.00934936      3.46531 
    0.00934987      3.50781 
    0.00935038      3.56973 
    0.00935089      3.65425 
     0.0093514      3.76509 
    0.00935178       3.8681 
    0.00935217      3.99048 
    0.00935262      4.16445 
    0.00935302      4.34622 
    0.00935342      4.55888 
    0.00935381      4.80656 
    0.00935411      5.01815 
    0.00935441      5.25437 
    0.00935471      5.51774 
    0.00935501      5.81108 
    0.00935531      6.13751 
    0.00935561      6.50051 
    0.00935594      6.95156 
    0.00935627      7.45861 
     0.0093566      8.02851 
    0.00935682      8.44712 
    0.00935704      8.89959 
    0.00935727      9.38869 
    0.00935758      10.1407 
    0.00935788       10.948 
    0.00935817      11.8451 
    0.00935847      12.8423 
    0.00935877       13.951 
    0.00935906      15.1359 
    0.00935932      16.3428 
    0.00935959      17.6695 
    0.00935986      19.1281 
    0.00936012      20.7314 
    0.00936039      22.4934 
    0.00936065      24.4296 
    0.00936092      26.5557 
    0.00936118      28.8889 
    0.00936145      31.4469 
    0.00936172       34.248 
    0.00936196      37.0449 
    0.00936219      39.9325 
    0.00936242      43.0444 
    0.00936266      46.3917 
    0.00936289      49.9835 
    0.00936312      53.8277 
    0.00936335      57.9295 
    0.00936366      63.8032 
    0.00936397      70.1347 
    0.00936428      76.9056 
     0.0093646      84.2135 
    0.00936502      94.5103 
    0.00936575      113.467 
    0.00936646      131.654 
    0.00936684      140.628 
    0.00936721       148.82 
    0.00936759      155.982 
    0.00936797      161.897 
    0.00936822      165.089 
    0.00936847      167.608 
    0.00936872      169.433 
    0.00936897      170.558 
     0.0093693      170.994 
    0.00936962      170.362 
    0.00936994      168.741 
    0.00937026      166.235 
    0.00937058      162.963 
    0.00937106      156.903 
    0.00937154      149.855 
    0.00937333      121.075 
    0.00937393      112.104 
    0.00937453      103.843 
    0.00937495      98.4912 
    0.00937539      93.2723 
    0.00937583      88.4654 
    0.00937628      84.0489 
    0.00937672      79.9963 
    0.00937716      76.2793 
    0.00937783      71.2704 
    0.00937849      66.8603 
    0.00937915      62.9662 
    0.00937982      59.5153 
    0.00938048      56.4457 
    0.00938115      53.7041 
    0.00938181      51.2459 
    0.00938269      48.3444 
    0.00938358      45.8059 
    0.00938447      43.5712 
    0.00938535      41.5924 
    0.00938641      39.5007 
    0.00938748      37.6666 
    0.00938854      36.0474 
     0.0093896      34.6095 
    0.00939102      32.9283 
    0.00939268      31.2379 
    0.00939434      29.7893 
      0.009396       28.536 
    0.00939766      27.4424 
    0.00939987      26.1853 
    0.00940208      25.1131 
     0.0094043      24.1886 
    0.00940651      23.3838 
    0.00940872      22.6773 
    0.00941138       21.936 
    0.00941536       20.998 
    0.00941935      20.2212 
    0.00942354      19.5353 
    0.00942773      18.9552 
     0.0094337      18.2672 
    0.00944007      17.6705 
    0.00944601      17.2069 
    0.00945431      16.6737 
    0.00946261      16.2394 
    0.00947091      15.8785 
    0.00948198      15.4822 
    0.00949415      15.1293 
    0.00950743      14.8151 
    0.00952735      14.4419 
    0.00955391      14.0663 
     0.0095871      13.7187 
    0.00962473      13.4241 
    0.00967784      13.1123 
    0.00973299      12.8635 
     0.0097345      12.8855 
    0.00973575      12.9781 
    0.00973754      13.1872 
    0.00973803      13.2032 
     0.0097389      13.1534 
    0.00974083      12.9188 
    0.00974221      12.8467 
    0.00975432      12.7807 
    0.00994912      12.1231 
    0.00995079      12.1546 
    0.00995153      12.2226 
    0.00995226      12.3674 
    0.00995288      12.5621 
    0.00995414       13.041 
    0.00995468      13.1649 
    0.00995504      13.1898 
    0.00995551      13.1436 
    0.00995607      12.9919 
     0.0099573      12.5246 
    0.00995794      12.3345 
    0.00995853      12.2225 
    0.00995928      12.1459 
    0.00996061      12.1013 
     0.0100319      11.7711 
      0.010066      11.5494 
     0.0100888      11.3373 
     0.0101059      11.1112 
     0.0101173      10.9033 
     0.0101259      10.6974 
     0.0101344      10.4233 
     0.0101398      10.1993 
     0.0101451      9.91405 
     0.0101487      9.67536 
     0.0101522       9.3822 
     0.0101547      9.13599 
     0.0101572      8.84333 
     0.0101595      8.51627 
     0.0101614      8.18326 
     0.0101627      7.92648 
     0.0101644      7.54126 
     0.0101656      7.23386 
     0.0101668      6.88593 
     0.0101679      6.51625 
      0.010169      6.11373 
       0.01017      5.66427 
     0.0101711      5.19092 
     0.0101723      4.62175 
     0.0101728      4.40031 
     0.0101731      4.28013 
     0.0101734      4.18948 
     0.0101737      4.15282 
     0.0101739        4.142 
      0.010174      4.15531 
     0.0101742      4.19112 
     0.0101744      4.25388 
     0.0101745      4.34857 
     0.0101747        4.477 
     0.0101748      4.58544 
     0.0101749      4.71443 
      0.010175      4.86618 
     0.0101751        5.043 
     0.0101752      5.24728 
     0.0101753      5.48162 
     0.0101755      5.78717 
     0.0101756      6.07911 
     0.0101757      6.40583 
     0.0101758      6.77116 
     0.0101759      7.17666 
      0.010176      7.62594 
     0.0101761      8.12146 
     0.0101762      8.66665 
     0.0101763      9.26357 
     0.0101764      9.91564 
     0.0101765      10.6243 
     0.0101766      11.4374 
     0.0101767       12.319 
     0.0101768       13.273 
     0.0101769      14.3006 
      0.010177       15.405 
     0.0101771      16.5053 
     0.0101772      18.0207 
     0.0101774      19.6488 
     0.0101775      21.3887 
     0.0101776      23.1332 
     0.0101778      25.7554 
     0.0101779      28.5534 
     0.0101782       32.139 
     0.0101784      36.7012 
     0.0101791      49.9645 
     0.0101793      53.9721 
     0.0101796      58.0674 
     0.0101798      61.4267 
       0.01018      64.0825 
     0.0101802      66.1807 
     0.0101803      67.7752 
     0.0101805      69.0457 
     0.0101807      69.9601 
     0.0101809      70.4868 
     0.0101811      70.6337 
     0.0101813      70.2837 
     0.0101815      69.4602 
     0.0101817      68.2127 
     0.0101819      66.6019 
     0.0101821      64.6979 
     0.0101824      61.8195 
      0.010183      55.4743 
     0.0101834      50.7025 
     0.0101837      47.6857 
      0.010184      44.8681 
     0.0101843      42.2783 
     0.0101846      39.9293 
     0.0101849      37.7668 
     0.0101851      35.8417 
     0.0101854      34.1337 
     0.0101857      32.6213 
     0.0101861      30.9546 
     0.0101865      29.5197 
     0.0101868      28.2771 
     0.0101872      27.1945 
     0.0101877      25.9533 
     0.0101882       24.813 
     0.0101888      23.8445 
     0.0101891      23.2759 
     0.0101898      22.2876 
     0.0101905      21.4582 
     0.0101913      20.7519 
      0.010192      20.1435 
      0.010193      19.3739 
     0.0101943      18.6316 
     0.0101957      17.9821 
      0.010197      17.4478 
      0.010199      16.8253 
     0.0102009      16.3294 
     0.0102031      15.8855 
     0.0102057      15.4596 
     0.0102092      15.0162 
     0.0102128      14.6635 
     0.0102178      14.2796 
     0.0102224       14.016 
     0.0102284      13.7419 
      0.010237      13.4538 
     0.0102455      13.2394 
     0.0102569      13.0246 
      0.010274      12.7931 
     0.0102968      12.5782 
     0.0103338      12.3414 
      0.010388       12.105 
     0.0105056      11.7344 
     0.0105835      11.5101 
     0.0105855      11.5355 
     0.0105864      11.6036 
     0.0105869       11.673 
     0.0105877      11.8479 
     0.0105892      12.2904 
     0.0105897       12.377 
     0.0105901      12.3919 
     0.0105906      12.3481 
     0.0105911      12.2322 
     0.0105925      11.8335 
     0.0105933      11.6577 
      0.010594      11.5635 
     0.0105954      11.5005 
      0.010604      11.4501 
     0.0106996      11.1083 
     0.0107532      10.8587 
     0.0107548      10.8748 
     0.0107555      10.9262 
     0.0107561      11.0194 
     0.0107565      11.1469 
      0.010757      11.3395 
     0.0107574      11.6285 
     0.0107579      11.9706 
     0.0107589      12.8432 
     0.0107593      13.1043 
     0.0107596      13.2797 
       0.01076      13.3458 
       0.01076      13.3472 
     0.0107603      13.3019 
     0.0107607      13.1636 
      0.010761      12.9342 
     0.0107617      12.3834 
     0.0107624      11.8027 
     0.0107628      11.4715 
     0.0107634      11.2033 
     0.0107638      11.0371 
     0.0107645      10.9143 
     0.0107654       10.838 
     0.0107683       10.788 
     0.0108145       10.445 
     0.0108412       10.183 
     0.0108618      9.92075 
     0.0108804      9.61254 
     0.0108954      9.29691 
     0.0108962      9.29442 
     0.0108974      9.33139 
     0.0108995      9.47377 
     0.0108998      9.48001 
     0.0109006        9.445 
     0.0109029      9.18372 
     0.0109038      9.10902 
     0.0109052      9.03826 
     0.0109141      8.74034 
      0.010923      8.38725 
     0.0109291      8.09412 
     0.0109338      7.83069 
     0.0109386      7.52834 
     0.0109432      7.18771 
     0.0109463      6.93009 
     0.0109493      6.64354 
     0.0109529      6.26983 
     0.0109559      5.91033 
      0.010959      5.50715 
     0.0109615      5.13461 
      0.010964      4.72774 
     0.0109666      4.28928 
     0.0109708      3.52976 
      0.010972      3.31884 
     0.0109729      3.18683 
     0.0109736       3.0975 
     0.0109743      3.02631 
     0.0109748        2.992 
     0.0109753      2.97094 
     0.0109757      2.96598 
     0.0109762       2.9806 
     0.0109767      3.01891 
      0.010977      3.06008 
     0.0109773       3.1158 
     0.0109776      3.18812 
     0.0109779      3.27936 
     0.0109782      3.39221 
     0.0109785      3.52975 
     0.0109788      3.67906 
      0.010979      3.83571 
     0.0109793      4.01617 
     0.0109796       4.2233 
     0.0109798      4.46034 
     0.0109801      4.73093 
     0.0109802      4.95833 
     0.0109804      5.20873 
     0.0109806      5.48444 
     0.0109809      5.85905 
      0.010981      6.15999 
     0.0109812      6.48727 
     0.0109814      6.84276 
     0.0109815      7.22929 
     0.0109817      7.64889 
     0.0109819      8.10469 
      0.010982      8.59923 
     0.0109822      9.08085 
     0.0109823      9.59891 
     0.0109825      10.1566 
     0.0109826      10.7562 
     0.0109828      11.4018 
      0.010983      12.0955 
     0.0109831      12.8416 
     0.0109833      13.6428 
     0.0109835      14.8059 
     0.0109837      16.0835 
     0.0109839      17.4869 
     0.0109841      19.0258 
     0.0109843      20.7123 
     0.0109845      22.3968 
     0.0109846      24.1373 
     0.0109848      26.0125 
      0.010985      28.0332 
     0.0109852      30.2023 
     0.0109853      32.5285 
     0.0109855       35.016 
     0.0109857      37.6707 
     0.0109859      41.4731 
     0.0109861      44.5234 
     0.0109863      48.8566 
     0.0109866       53.486 
     0.0109868      58.3955 
     0.0109872      66.2303 
     0.0109875      74.5303 
     0.0109886      100.561 
     0.0109889      107.936 
     0.0109892      114.771 
     0.0109895      120.124 
     0.0109897      124.152 
       0.01099      127.646 
     0.0109902      130.557 
     0.0109905      132.853 
     0.0109907      134.512 
     0.0109909      135.528 
     0.0109912      135.909 
     0.0109914      135.675 
     0.0109916      134.859 
      0.010992      132.644 
     0.0109923      129.397 
     0.0109927      125.324 
     0.0109932      119.205 
     0.0109939      107.873 
     0.0109945       98.685 
     0.0109951      89.9847 
     0.0109956      83.3223 
     0.0109961      77.2795 
     0.0109966      71.8631 
     0.0109972       67.045 
     0.0109977      62.7737 
     0.0109982      58.9919 
     0.0109987      55.6399 
     0.0109992      52.6639 
     0.0109997      50.0122 
     0.0110002      47.6429 
     0.0110007      45.5174 
     0.0110012      43.6039 
     0.0110019      41.3353 
     0.0110025      39.3408 
     0.0110032       37.577 
      0.011004      35.7146 
     0.0110048      34.0842 
     0.0110057      32.6465 
     0.0110065       31.371 
     0.0110075      29.8801 
     0.0110088      28.3818 
     0.0110101       27.099 
     0.0110113      25.9894 
     0.0110126      25.0213 
     0.0110143      23.9084 
      0.011016      22.9589 
     0.0110177        22.14 
     0.0110193      21.4269 
      0.011021      20.8007 
     0.0110231      20.1434 
     0.0110261       19.311 
     0.0110291       18.621 
     0.0110322      18.0318 
     0.0110353      17.5302 
     0.0110399      16.9033 
     0.0110446      16.3823 
     0.0110478      16.0829 
     0.0110541      15.5779 
       0.01106      15.1934 
     0.0110688      14.7292 
     0.0110777      14.3618 
     0.0110878      14.0253 
     0.0110979      13.7519 
     0.0111114      13.4576 
     0.0111317      13.1182 
     0.0111575       12.797 
     0.0111752      12.6285 
     0.0111766      12.6517 
     0.0111781      12.7656 
     0.0111796      12.9005 
       0.01118      12.9102 
     0.0111809       12.864 
      0.011183      12.6419 
     0.0111845      12.5661 
     0.0111929      12.4812 
     0.0112253      12.2609 
     0.0112275      12.2992 
     0.0112298      12.4023 
       0.01123      12.4032 
     0.0112314      12.3504 
     0.0112332      12.2508 
     0.0112357      12.2026 
     0.0112843      11.9545 
     0.0112859      11.9838 
      0.011287      12.0785 
     0.0112879      12.2554 
     0.0112893       12.546 
       0.01129      12.6086 
       0.01129      12.6091 
     0.0112906      12.5728 
     0.0112913      12.4431 
     0.0112927      12.1474 
     0.0112934      12.0338 
     0.0112945      11.9526 
     0.0112964      11.9133 
     0.0113587       11.664 
     0.0115182       11.168 
     0.0115334      11.1232 
     0.0115354      11.1452 
     0.0115362      11.1979 
      0.011537      11.3011 
     0.0115377      11.4522 
     0.0115392      11.8732 
     0.0115398      11.9661 
       0.01154      11.9747 
     0.0115406      11.9329 
     0.0115412      11.8052 
     0.0115426      11.4113 
     0.0115433      11.2741 
      0.011544      11.1808 
      0.011545      11.1284 
     0.0115483      11.0919 
     0.0117458      10.4739 
     0.0117632      10.4174 
     0.0117652      10.4455 
     0.0117661      10.5126 
     0.0117668      10.6202 
     0.0117674       10.757 
     0.0117691      11.3213 
     0.0117697      11.4332 
       0.01177      11.4537 
     0.0117705      11.4161 
      0.011771      11.3033 
     0.0117727      10.7633 
     0.0117733      10.6188 
      0.011774      10.5053 
     0.0117749      10.4331 
     0.0117763      10.3922 
     0.0117949       10.303 
     0.0118855      9.92788 
      0.011953      9.58808 
     0.0120104      9.23496 
     0.0120529      8.91917 
     0.0120877      8.61221 
     0.0121143      8.34388 
     0.0121159      8.36603 
     0.0121166      8.41887 
     0.0121174      8.51104 
     0.0121192      8.82456 
     0.0121198      8.87612 
       0.01212      8.88024 
     0.0121206      8.84676 
     0.0121212      8.75716 
     0.0121227      8.47886 
     0.0121235      8.35457 
     0.0121245      8.27436 
      0.012126      8.22542 
     0.0121623      7.72887 
     0.0121781      7.48236 
     0.0121934      7.21478 
     0.0122065      6.95745 
     0.0122205      6.65201 
     0.0122346      6.30466 
     0.0122453      6.00764 
     0.0122565      5.65876 
     0.0122643      5.39389 
      0.012272      5.10609 
     0.0122788      4.83257 
     0.0122856      4.53741 
     0.0122929      4.19381 
     0.0123002      3.82101 
     0.0123069      3.45712 
     0.0123135      3.06972 
     0.0123216      2.57293 
      0.012329      2.11307 
     0.0123324      1.91214 
     0.0123335      1.84803 
     0.0123342      1.81726 
     0.0123347      1.80122 
     0.0123352      1.79634 
     0.0123354      1.79897 
     0.0123358      1.81133 
     0.0123361      1.83459 
     0.0123364       1.8688 
     0.0123367      1.91699 
     0.0123368      1.94675 
     0.0123371        2.018 
     0.0123374      2.09136 
     0.0123376      2.17493 
      0.012338      2.33147 
     0.0123387       2.5853 
      0.012339      2.67197 
     0.0123392      2.73356 
     0.0123394      2.79467 
     0.0123396      2.82561 
     0.0123399      2.84236 
       0.01234      2.84365 
     0.0123402      2.83409 
     0.0123404      2.80176 
     0.0123406      2.75742 
     0.0123408      2.70607 
     0.0123411      2.62516 
     0.0123413       2.5281 
     0.0123417      2.36981 
     0.0123422      2.12453 
     0.0123425       2.0147 
     0.0123427      1.91349 
      0.012343      1.82273 
     0.0123432      1.74347 
     0.0123435      1.67742 
     0.0123438      1.62201 
      0.012344      1.57638 
     0.0123443      1.53947 
     0.0123445      1.51007 
     0.0123449      1.47748 
     0.0123453      1.45551 
     0.0123458      1.43755 
     0.0123463      1.42858 
     0.0123469      1.42559 
     0.0123479      1.43278 
     0.0123488      1.45147 
     0.0123497      1.48183 
     0.0123506      1.52487 
     0.0123512      1.56129 
     0.0123521       1.6232 
     0.0123529      1.69626 
     0.0123535      1.75312 
      0.012354      1.81705 
     0.0123546      1.88856 
     0.0123551       1.9682 
     0.0123556      2.05658 
     0.0123562      2.15437 
     0.0123567      2.26228 
     0.0123573      2.38105 
     0.0123578      2.51153 
     0.0123584      2.65462 
     0.0123589      2.81131 
     0.0123595      2.98264 
       0.01236      3.16976 
     0.0123605      3.35273 
     0.0123612      3.61989 
     0.0123618      3.91596 
     0.0123625       4.2437 
     0.0123631      4.60631 
     0.0123638      5.00714 
     0.0123644       5.4503 
     0.0123651      5.93979 
     0.0123658      6.48047 
     0.0123664      7.07753 
     0.0123671      7.73692 
     0.0123677      8.40159 
     0.0123682      9.09509 
     0.0123688      9.85136 
     0.0123694      10.6766 
       0.01237      11.5768 
     0.0123705       12.559 
     0.0123711      13.6308 
     0.0123717      14.8006 
     0.0123722       16.077 
     0.0123728      17.4702 
     0.0123734      18.9901 
      0.012374      20.6494 
     0.0123745      22.4592 
     0.0123751      24.4329 
     0.0123757       26.584 
     0.0123763      28.9276 
     0.0123768       31.478 
     0.0123774      34.2512 
      0.012378      37.2611 
     0.0123786      40.5246 
     0.0123791      44.0536 
     0.0123797      47.8616 
     0.0123803      51.9582 
     0.0123809      56.3505 
     0.0123814      61.0395 
     0.0123822      67.7462 
      0.012383      75.2095 
     0.0123838      83.4145 
      0.012385      96.3833 
     0.0123869      116.239 
     0.0123879      126.565 
     0.0123887      133.524 
     0.0123895      139.564 
       0.01239      142.988 
     0.0123907      146.548 
     0.0123913      149.201 
      0.012392      150.921 
     0.0123927      151.757 
     0.0123929      151.782 
     0.0123934      151.529 
     0.0123942      150.242 
     0.0123949      147.995 
     0.0123957      144.948 
     0.0123968      139.239 
      0.012398      132.632 
     0.0124017      109.812 
     0.0124032      101.413 
     0.0124046      93.7287 
     0.0124061      86.8003 
     0.0124071      82.3683 
     0.0124082      78.0768 
     0.0124093       74.143 
     0.0124104      70.5387 
     0.0124115      67.2351 
     0.0124132      62.7843 
     0.0124148      58.8637 
     0.0124164      55.3985 
     0.0124181       52.324 
     0.0124197      49.5856 
     0.0124213      47.1362 
      0.012423      44.9371 
     0.0124241      43.5934 
     0.0124263      41.1612 
     0.0124284      39.0227 
     0.0124306      37.1311 
     0.0124328      35.4491 
     0.0124352      33.8285 
     0.0124375       32.383 
     0.0124407      30.6828 
     0.0124439      29.2022 
     0.0124472      27.8143 
     0.0124509      26.5179 
     0.0124545      25.3799 
     0.0124581      24.3742 
     0.0124632      23.1437 
     0.0124681      22.1193 
      0.012473      21.2253 
     0.0124779      20.4377 
     0.0124828       19.738 
     0.0124894      18.9172 
      0.012496      18.2004 
     0.0125025      17.5694 
     0.0125123      16.7445 
     0.0125218      16.0633 
     0.0125323      15.3994 
     0.0125398      14.9836 
     0.0125528       14.342 
     0.0125625      13.9315 
     0.0125723      13.5969 
     0.0125788      13.4382 
     0.0125841      13.3716 
     0.0125859      13.3682 
     0.0125904      13.4181 
     0.0125937      13.5324 
     0.0125967       13.717 
     0.0125994      13.9932 
     0.0126013      14.2533 
     0.0126032      14.5946 
     0.0126046      14.9182 
      0.012606      15.3141 
     0.0126073      15.7992 
     0.0126087      16.3947 
     0.0126097       16.866 
     0.0126106       17.408 
     0.0126115      18.0319 
     0.0126125      18.7512 
     0.0126134       19.581 
     0.0126143      20.5392 
     0.0126152      21.6459 
     0.0126159      22.5868 
     0.0126166      23.6337 
     0.0126174      24.9619 
     0.0126181       26.179 
     0.0126187      27.5159 
     0.0126194      28.9795 
       0.01262      30.5749 
     0.0126207      32.3044 
     0.0126217       35.145 
     0.0126226       38.293 
      0.012624      42.9054 
     0.0126257      48.7297 
     0.0126267       51.911 
     0.0126274      53.7628 
      0.012628       55.301 
     0.0126287      56.4906 
     0.0126293      57.3254 
       0.01263      57.7854 
     0.0126304      57.8815 
     0.0126309      57.7727 
     0.0126316      57.3262 
     0.0126322      56.5672 
     0.0126329       55.539 
     0.0126337      53.8331 
      0.012635      50.7944 
     0.0126381      42.9637 
     0.0126395      39.7101 
     0.0126404      37.7264 
     0.0126414      35.9002 
     0.0126423      34.2296 
     0.0126432      32.7073 
     0.0126441      31.3234 
     0.0126455      29.4816 
     0.0126469      27.8863 
     0.0126483      26.5011 
     0.0126497      25.2937 
     0.0126511      24.2368 
      0.012652      23.6042 
     0.0126539      22.4853 
     0.0126558      21.5298 
     0.0126576      20.7069 
     0.0126595      19.9923 
     0.0126618      19.2228 
     0.0126641      18.5645 
     0.0126665      17.9947 
     0.0126688      17.4971 
     0.0126723      16.8499 
     0.0126758      16.3066 
     0.0126794      15.8434 
     0.0126845      15.2733 
     0.0126894      14.8214 
      0.012696       14.317 
     0.0127028      13.8772 
     0.0127131      13.3305 
     0.0127233      12.8778 
      0.012737      12.3707 
     0.0127515      11.9148 
     0.0127643      11.5652 
     0.0127787      11.2264 
     0.0127937      10.9377 
      0.012804      10.7942 
     0.0128129      10.7197 
     0.0128184       10.705 
     0.0128252       10.731 
      0.012832      10.8221 
     0.0128372      10.9466 
     0.0128423      11.1335 
     0.0128474      11.4001 
     0.0128508      11.6328 
     0.0128542       11.919 
     0.0128577      12.2685 
     0.0128611      12.6933 
     0.0128645      13.2076 
     0.0128671      13.6623 
     0.0128696      14.1853 
     0.0128722      14.7861 
     0.0128748      15.4756 
     0.0128773      16.2641 
     0.0128799       17.164 
     0.0128824      18.1962 
      0.012885      19.3759 
     0.0128876      20.7194 
     0.0128901      22.2445 
     0.0128918      23.3711 
     0.0128936      24.5914 
     0.0128961      26.6074 
     0.0128987      28.8556 
     0.0129013      31.3865 
      0.012904      34.2584 
     0.0129067      37.3613 
     0.0129103      41.7645 
     0.0129174      50.7443 
       0.01292        53.81 
     0.0129226      56.5449 
     0.0129246      58.3115 
     0.0129264      59.6847 
     0.0129288      61.0493 
     0.0129311      61.9583 
     0.0129334       62.413 
     0.0129346      62.4753 
     0.0129365      62.3538 
     0.0129393      61.7098 
     0.0129421      60.6243 
     0.0129459      58.6873 
     0.0129496      56.3687 
     0.0129599      49.5166 
      0.012965      46.2858 
     0.0129701      43.3385 
     0.0129752      40.6998 
     0.0129804      38.3608 
     0.0129855      36.2968 
     0.0129906      34.4775 
     0.0129958       32.872 
     0.0130009       31.452 
     0.0130043      30.5956 
     0.0130111      29.0681 
      0.013018      27.7536 
     0.0130246      26.6604 
     0.0130269      26.3916 
     0.0130299      26.2373 
     0.0130314      25.9593 
     0.0130337      25.4146 
     0.0130369      24.9521 
     0.0130426      24.2738 
     0.0130508      23.4208 
     0.0130627      22.3674 
     0.0130733      21.5837 
     0.0130849      20.8469 
     0.0130929      20.3961 
     0.0131095      19.5987 
     0.0131236      19.0334 
     0.0131438      18.3516 
     0.0131638      17.7955 
     0.0131851      17.2985 
     0.0132151      16.7246 
      0.013245      16.2659 
     0.0132452      16.2656 
     0.0132472      16.3197 
     0.0132497      16.4792 
       0.01325      16.4815 
     0.0132513      16.4124 
     0.0132539      16.1914 
     0.0132568      16.1081 
     0.0132922      15.6787 
     0.0133414       15.207 
     0.0134024      14.7492 
     0.0134794      14.2998 
     0.0134938      14.2314 
     0.0134958      14.2686 
     0.0134969      14.3714 
     0.0134993      14.7478 
        0.0135      14.7929 
     0.0135009       14.736 
     0.0135031      14.3803 
      0.013504      14.2768 
     0.0135059      14.1966 
     0.0135291      14.0682 
     0.0136345      13.6575 
     0.0137739      13.2389 
     0.0139628       12.796 
     0.0140525      12.6127 
     0.0140549      12.6418 
     0.0140559      12.7228 
     0.0140566      12.8347 
     0.0140573      13.0267 
     0.0140589      13.5522 
     0.0140596      13.6984 
       0.01406      13.7292 
     0.0140606      13.6871 
     0.0140612      13.5449 
     0.0140629      12.9813 
     0.0140637      12.8034 
     0.0140645      12.6939 
     0.0140656      12.6313 
     0.0140694      12.5927 
     0.0141896      12.3572 
     0.0141931      12.3808 
     0.0141942      12.4412 
     0.0141947      12.5251 
     0.0141953      12.6818 
     0.0141957       12.852 
     0.0141961      13.0904 
     0.0141965      13.3891 
     0.0141968      13.7155 
     0.0141972       14.245 
     0.0141977      14.9696 
     0.0141985      16.2192 
     0.0141989      16.7594 
     0.0141993      17.2043 
     0.0141996       17.461 
     0.0141999       17.575 
        0.0142      17.5862 
     0.0142003      17.5328 
     0.0142006      17.3374 
      0.014201      17.0505 
     0.0142013      16.6282 
     0.0142019      15.6887 
     0.0142026      14.6081 
      0.014203      14.0962 
     0.0142034       13.611 
     0.0142038      13.2981 
     0.0142042      13.0226 
     0.0142046      12.8199 
      0.014205      12.6684 
     0.0142055      12.5386 
     0.0142063      12.4476 
     0.0142079       12.388 
      0.014215      12.3333 
     0.0143705      12.0277 
     0.0144737      11.8255 
     0.0144763      11.8537 
     0.0144788      11.9958 
     0.0144801      12.0413 
     0.0144815      11.9901 
     0.0144839      11.8525 
     0.0144865      11.8104 
     0.0145239      11.7227 
     0.0145263       11.749 
     0.0145283      11.8636 
     0.0145298      11.9458 
     0.0145301      11.9485 
     0.0145314      11.9046 
     0.0145337      11.7573 
     0.0145358      11.7128 
     0.0146699      11.3613 
      0.014722      11.1886 
     0.0147249      11.2136 
     0.0147263      11.2847 
     0.0147278      11.4409 
     0.0147293      11.6039 
       0.01473      11.6331 
      0.014731       11.592 
     0.0147336      11.2923 
      0.014735       11.201 
     0.0147373      11.1436 
     0.0147828      10.8659 
     0.0148041      10.6785 
     0.0148185      10.4917 
     0.0148278      10.3147 
     0.0148344      10.1414 
     0.0148403       9.9211 
     0.0148438      9.74658 
     0.0148468      9.55408 
     0.0148493      9.34855 
     0.0148513      9.14105 
     0.0148532      8.89651 
     0.0148545      8.68522 
     0.0148558       8.4285 
     0.0148568      8.17754 
     0.0148579      7.87466 
     0.0148586      7.63713 
     0.0148594      7.32934 
     0.0148608      6.73751 
     0.0148612       6.5942 
     0.0148615       6.5151 
     0.0148617      6.47512 
     0.0148618       6.4732 
     0.0148621      6.50208 
     0.0148623      6.55588 
     0.0148625      6.64306 
     0.0148626      6.76911 
     0.0148628      6.93951 
      0.014863      7.16018 
     0.0148631      7.36216 
     0.0148633       7.6478 
     0.0148634      8.01564 
     0.0148636      8.44874 
     0.0148638      8.95195 
      0.014864      9.52747 
     0.0148641      9.95246 
     0.0148642      10.6036 
     0.0148644      11.3201 
     0.0148645      12.1017 
     0.0148647      12.9455 
     0.0148649      13.9425 
     0.0148651      15.3549 
     0.0148653        16.86 
     0.0148657      19.5431 
     0.0148663      23.3511 
     0.0148665       24.859 
     0.0148668      26.4418 
      0.014867      27.7977 
     0.0148672      28.6755 
     0.0148674      29.3776 
     0.0148676      30.0111 
     0.0148678      30.4437 
      0.014868      30.8146 
     0.0148683      30.9533 
     0.0148683      30.9545 
     0.0148685      30.8708 
     0.0148687      30.5848 
      0.014869      30.1194 
     0.0148693      29.2671 
     0.0148696       28.216 
     0.0148701      26.3282 
     0.0148709      23.4112 
     0.0148713      21.8632 
     0.0148717      20.7799 
      0.014872      19.9458 
     0.0148723      19.2038 
     0.0148726      18.3485 
      0.014873      17.6304 
     0.0148734      17.0288 
     0.0148738      16.5235 
     0.0148742      16.0964 
     0.0148746       15.732 
     0.0148752      15.3179 
      0.014876      14.8206 
     0.0148768      14.4278 
     0.0148779       14.004 
      0.014879      13.6713 
     0.0148802      13.3737 
     0.0148817       13.087 
     0.0148837      12.7901 
     0.0148857      12.5592 
     0.0148877      12.3738 
     0.0148917      12.0924 
     0.0148956      11.8863 
     0.0149016      11.6593 
     0.0149109      11.4117 
     0.0149182      11.2657 
     0.0149326      11.0404 
     0.0149849      10.3778 
     0.0150066       10.055 
      0.015021      9.79017 
     0.0150318      9.55091 
     0.0150426      9.26068 
     0.0150498      9.02853 
     0.0150571      8.75468 
     0.0150643      8.42574 
     0.0150693      8.15519 
     0.0150743       7.8398 
     0.0150788      7.50389 
     0.0150825      7.19279 
     0.0150861       6.8365 
     0.0150892      6.50097 
     0.0150919      6.16436 
     0.0150946      5.78976 
     0.0150973      5.37506 
        0.0151      4.92331 
     0.0151038      4.26303 
     0.0151051      4.05083 
     0.0151061      3.91404 
     0.0151068      3.84032 
     0.0151074      3.79191 
     0.0151079       3.7662 
     0.0151083      3.75897 
     0.0151087      3.76432 
     0.0151092      3.79484 
     0.0151095      3.83385 
     0.0151098      3.89047 
     0.0151102      3.96763 
     0.0151105      4.06868 
     0.0151109      4.19769 
     0.0151111      4.31555 
     0.0151114      4.45396 
     0.0151116      4.61553 
     0.0151119      4.80301 
     0.0151121      4.99968 
     0.0151124      5.22341 
     0.0151126      5.47742 
     0.0151128      5.76497 
     0.0151131      6.09016 
     0.0151133      6.45691 
     0.0151135      6.87013 
     0.0151138      7.33469 
      0.015114      7.73095 
     0.0151141      8.16361 
     0.0151143        8.636 
     0.0151145      9.15086 
     0.0151147      9.71219 
     0.0151149      10.3228 
      0.015115       10.987 
     0.0151152      11.7079 
     0.0151154      12.6552 
     0.0151157      13.6971 
     0.0151159      14.8417 
     0.0151161      16.0958 
     0.0151163      17.4673 
     0.0151165      18.9627 
     0.0151167      20.5892 
     0.0151169      22.3509 
     0.0151172      24.2557 
     0.0151174      26.3045 
     0.0151175      27.7519 
     0.0151178      30.4459 
      0.015118        33.34 
     0.0151183      36.4307 
     0.0151185      39.7064 
     0.0151189      44.9395 
     0.0151193      50.4843 
     0.0151205       68.846 
      0.015121      75.7736 
     0.0151213      80.3261 
     0.0151217      84.4055 
      0.015122      87.9115 
     0.0151223      90.0831 
     0.0151225       91.876 
     0.0151228      93.2756 
      0.015123      94.2732 
     0.0151234      94.9962 
     0.0151235      95.0679 
     0.0151238      94.7985 
     0.0151242       93.851 
     0.0151245      92.3032 
     0.0151249      90.2475 
     0.0151252      87.7119 
     0.0151256      84.8518 
     0.0151263      78.5557 
     0.0151274      68.8785 
      0.015128      64.3403 
     0.0151285      60.1374 
      0.015129      56.3077 
     0.0151296       52.857 
     0.0151301      49.7679 
     0.0151307       47.013 
     0.0151312      44.5569 
     0.0151317      42.3673 
     0.0151323      40.4108 
     0.0151328      38.6583 
     0.0151335       36.594 
     0.0151343      34.7507 
      0.015135      33.1382 
     0.0151358      31.7183 
     0.0151365      30.4607 
     0.0151374      29.0663 
     0.0151384      27.8513 
      0.015139      27.1252 
     0.0151402      25.8409 
     0.0151415      24.7418 
     0.0151428      23.7148 
     0.0151442      22.8287 
      0.015146      21.8214 
     0.0151478      20.9715 
     0.0151496      20.2456 
     0.0151514      19.6185 
     0.0151541      18.8239 
     0.0151571      18.1102 
     0.0151605      17.4281 
      0.015164      16.8675 
     0.0151684      16.2745 
     0.0151734      15.7434 
     0.0151784      15.3115 
     0.0151854      14.8244 
     0.0151923      14.4372 
     0.0151996      14.1124 
     0.0152104      13.7253 
     0.0152212      13.4213 
     0.0152328      13.1647 
     0.0152338      13.1579 
      0.015235      13.1996 
     0.0152357      13.2769 
     0.0152364      13.4483 
     0.0152371      13.6957 
     0.0152388      14.5037 
     0.0152394      14.7098 
       0.01524      14.7835 
       0.01524      14.7843 
     0.0152405      14.7343 
      0.015241      14.5893 
     0.0152417      14.2876 
     0.0152428      13.6823 
     0.0152434      13.4348 
     0.0152441      13.2398 
     0.0152448      13.0922 
     0.0152456      13.0107 
     0.0152473      12.9345 
     0.0152603      12.7186 
     0.0152869      12.4072 
     0.0153197      12.1229 
     0.0153683      11.8082 
     0.0154365      11.4714 
     0.0154831      11.2759 
     0.0154852      11.3041 
     0.0154864      11.3898 
     0.0154876        11.56 
     0.0154891      11.8134 
     0.0154899      11.8817 
       0.01549      11.8848 
     0.0154908      11.8428 
     0.0154919      11.6739 
     0.0154931      11.4655 
     0.0154941      11.3502 
     0.0154953      11.2743 
     0.0154979       11.231 
     0.0156001      10.8246 
     0.0156028      10.8406 
     0.0156038      10.8864 
     0.0156044      10.9639 
     0.0156049      11.0698 
     0.0156053      11.2165 
     0.0156057      11.4139 
     0.0156061      11.6826 
     0.0156065      11.9746 
     0.0156068      12.3275 
     0.0156072      12.8238 
     0.0156078      13.5768 
     0.0156084      14.5174 
     0.0156088      15.0431 
     0.0156091      15.3767 
     0.0156094      15.6257 
     0.0156097      15.7756 
     0.0156099       15.854 
       0.01561      15.8594 
     0.0156103       15.815 
     0.0156106      15.6946 
     0.0156108      15.4852 
     0.0156111      15.2095 
     0.0156115      14.7378 
     0.0156125      13.3576 
      0.015613      12.6463 
     0.0156134      12.1657 
     0.0156138      11.8432 
     0.0156142      11.5464 
     0.0156146      11.3228 
      0.015615      11.1605 
     0.0156155      11.0169 
     0.0156163      10.9017 
     0.0156174       10.838 
     0.0156201      10.7879 
     0.0156353      10.6963 
     0.0156636      10.5734 
     0.0156654      10.6058 
     0.0156664      10.6749 
     0.0156675      10.8388 
     0.0156691      11.1237 
     0.0156699      11.1901 
     0.0156701      11.1922 
     0.0156707      11.1616 
     0.0156716        11.04 
     0.0156732      10.7585 
     0.0156742      10.6442 
     0.0156755      10.5692 
     0.0156783      10.5302 
      0.015787      10.0192 
     0.0158554      9.63495 
     0.0158737      9.52031 
     0.0158751      9.54297 
     0.0158761      9.60174 
     0.0158771      9.73779 
      0.015879      10.0862 
     0.0158797       10.164 
     0.0158801      10.1723 
     0.0158807      10.1368 
     0.0158816      10.0052 
     0.0158832      9.70051 
     0.0158841       9.5736 
     0.0158847       9.5248 
     0.0158862      9.46566 
      0.015895      9.38358 
     0.0159426      9.01274 
     0.0159822       8.6471 
     0.0160112      8.33191 
     0.0160371      8.00604 
     0.0160604      7.66877 
      0.016075      7.43481 
     0.0160759      7.43297 
     0.0160778      7.47223 
     0.0160796      7.52538 
     0.0160798      7.52585 
      0.016081      7.49728 
     0.0160836      7.33193 
     0.0160853      7.26782 
     0.0161073      6.81879 
     0.0161241      6.43731 
     0.0161373      6.10074 
     0.0161506      5.72886 
     0.0161638      5.31894 
     0.0161771      4.87125 
     0.0162044      3.88742 
     0.0162107      3.68039 
      0.016215      3.56055 
     0.0162192      3.46328 
     0.0162221      3.41466 
      0.016225      3.38683 
     0.0162269      3.38265 
     0.0162296      3.39979 
     0.0162314      3.42873 
     0.0162331      3.47435 
     0.0162349      3.53936 
     0.0162367      3.62695 
     0.0162384      3.74081 
     0.0162398      3.84604 
     0.0162411      3.97055 
     0.0162422      4.09588 
     0.0162434      4.23909 
     0.0162445       4.4021 
     0.0162457      4.58711 
     0.0162468      4.79671 
      0.016248      5.03368 
     0.0162491      5.30108 
     0.0162503      5.60224 
     0.0162512      5.85925 
     0.0162521      6.14033 
     0.0162529       6.4476 
     0.0162538       6.7833 
     0.0162547      7.15001 
     0.0162556      7.55037 
     0.0162565      7.98743 
     0.0162574      8.46439 
     0.0162584      9.09467 
     0.0162595      9.79436 
     0.0162605      10.5712 
     0.0162616      11.4334 
     0.0162627      12.3906 
     0.0162637      13.4529 
     0.0162648      14.6319 
     0.0162658      15.9398 
     0.0162665      16.8904 
     0.0162673      17.9087 
      0.016268      18.9995 
      0.016269      20.7042 
     0.0162699      22.4129 
     0.0162708      24.2797 
     0.0162718      26.3168 
     0.0162727      28.5372 
     0.0162736      30.9533 
     0.0162745      33.5784 
     0.0162755      36.4229 
     0.0162764      39.4972 
     0.0162773      42.8086 
     0.0162783      46.3623 
     0.0162792      50.3448 
     0.0162802      54.6871 
     0.0162815      60.8725 
     0.0162832      69.1423 
     0.0162873      90.6058 
     0.0162888      97.8733 
     0.0162902      104.416 
     0.0162912      108.228 
     0.0162923       111.87 
     0.0162932      114.334 
     0.0162942      116.252 
     0.0162951      117.612 
      0.016296      118.414 
     0.0162969      118.676 
      0.016298      118.343 
      0.016299       117.43 
        0.0163       116.01 
     0.0163014      113.461 
     0.0163028      110.328 
     0.0163048      104.907 
     0.0163102      89.5017 
     0.0163129      82.3781 
     0.0163155      75.8918 
     0.0163173       71.952 
      0.016319      68.3166 
     0.0163208      64.9724 
     0.0163226       61.901 
     0.0163252      57.7611 
     0.0163279      54.1193 
     0.0163305      50.9094 
     0.0163332      48.0719 
     0.0163358      45.5549 
     0.0163382      43.5263 
     0.0163406      41.6934 
     0.0163438      39.5125 
      0.016347      37.5887 
     0.0163497      36.1104 
     0.0163532      34.4817 
     0.0163543      34.0496 
     0.0163555      33.7937 
     0.0163558      33.7747 
     0.0163565      33.8341 
     0.0163572      34.0729 
     0.0163589      34.8212 
     0.0163595      34.9296 
     0.0163601      34.8199 
     0.0163607        34.44 
     0.0163614      33.7655 
      0.016363      31.8968 
     0.0163638      31.1338 
     0.0163647      30.4479 
      0.016366      29.8541 
     0.0163672      29.4191 
     0.0163707       28.398 
     0.0163745      27.4277 
     0.0163798      26.2419 
     0.0163865      24.9545 
     0.0163925      23.9483 
     0.0163986      23.0673 
     0.0164056      22.1789 
     0.0164126      21.4029 
     0.0164211      20.5852 
     0.0164325      19.6525 
     0.0164441      18.8493 
      0.016454      18.2706 
     0.0164552      18.2326 
     0.0164567      18.2656 
     0.0164594      18.5098 
     0.0164597      18.5139 
     0.0164607      18.4474 
     0.0164626      18.1083 
     0.0164639      17.8803 
     0.0164654       17.724 
      0.016472      17.3858 
     0.0164839      16.8826 
     0.0165001      16.2992 
     0.0165157      15.8096 
     0.0165415      15.1275 
     0.0165656      14.5869 
     0.0166082      13.7589 
     0.0166398       13.135 
     0.0166507      12.8701 
     0.0166593      12.6038 
     0.0166659      12.3246 
     0.0166692      12.1383 
      0.016672      11.9379 
     0.0166743      11.7279 
     0.0166763      11.4981 
      0.016678      11.2534 
     0.0166794      10.9705 
     0.0166804      10.7337 
     0.0166814      10.4422 
     0.0166824       10.079 
     0.0166834       9.6371 
     0.0166844      9.16642 
     0.0166849      8.97487 
     0.0166852      8.89233 
     0.0166855      8.86656 
     0.0166858      8.89934 
      0.016686      8.98602 
     0.0166862      9.09844 
     0.0166864       9.2553 
     0.0166866      9.46137 
     0.0166868      9.72077 
      0.016687      10.0373 
     0.0166872      10.4911 
     0.0166874      10.8714 
     0.0166876      11.2972 
     0.0166877      11.7674 
      0.016688       12.521 
     0.0166882      13.3571 
     0.0166885      14.3703 
     0.0166889       16.068 
     0.0166896      19.2844 
     0.0166899      20.3714 
     0.0166901      21.1933 
     0.0166903      21.8846 
     0.0166906      22.5465 
     0.0166908      23.1004 
     0.0166911      23.5982 
     0.0166913      23.9355 
     0.0166916      24.1141 
     0.0166917      24.1483 
      0.016692      24.1024 
     0.0166922      23.9289 
     0.0166926        23.58 
     0.0166929      23.0263 
     0.0166934      22.1728 
     0.0166944      20.1793 
     0.0166949      19.2942 
     0.0166954      18.5242 
     0.0166959      17.8757 
     0.0166964      17.3392 
     0.0166969      16.8986 
     0.0166974      16.4974 
     0.0166982      16.0294 
     0.0166991      15.6723 
     0.0167001      15.3228 
     0.0167012      15.0501 
     0.0167027       14.743 
     0.0167044      14.4886 
     0.0167066      14.2215 
     0.0167095      13.9685 
     0.0167143      13.6739 
     0.0167202      13.4178 
     0.0167282      13.1736 
     0.0167391      12.9267 
     0.0167586      12.5989 
      0.016793      12.1555 
     0.0168713      11.3112 
     0.0169384      10.5851 
     0.0169888      9.97557 
     0.0170223      9.51361 
     0.0170548      9.00554 
     0.0170794      8.56641 
     0.0170973      8.21069 
     0.0171152      7.81776 
     0.0171331      7.38063 
      0.017151      6.89182 
     0.0171644      6.48646 
     0.0171779      6.04449 
     0.0171913      5.56432 
     0.0172047      5.04796 
     0.0172299      4.03075 
     0.0172378      3.73626 
     0.0172435      3.55032 
     0.0172473      3.44747 
     0.0172502      3.38563 
      0.017253      3.34052 
     0.0172553      3.31955 
     0.0172575      3.31396 
     0.0172594      3.32302 
     0.0172613      3.34659 
     0.0172632      3.38732 
     0.0172651        3.448 
      0.017267      3.53149 
     0.0172689      3.64105 
     0.0172703      3.74261 
     0.0172718        3.863 
     0.0172733      4.01365 
      0.017275       4.2126 
     0.0172761      4.36576 
     0.0172772        4.537 
     0.0172783      4.72798 
     0.0172794      4.94044 
     0.0172806      5.17637 
     0.0172817      5.43788 
     0.0172827      5.69712 
     0.0172837      5.98085 
     0.0172847      6.29116 
     0.0172857      6.63022 
     0.0172867       7.0005 
     0.0172877      7.40454 
     0.0172887      7.84523 
     0.0172897      8.32561 
     0.0172906      8.78874 
     0.0172915       9.2884 
     0.0172924      9.82739 
     0.0172933      10.4085 
     0.0172942      11.0352 
     0.0172951      11.7105 
      0.017296      12.4382 
     0.0172969       13.222 
     0.0172981      14.3431 
     0.0172992      15.5779 
     0.0173004      16.9374 
     0.0173016      18.4328 
     0.0173028      20.0765 
     0.0173039      21.8814 
     0.0173051      23.8608 
     0.0173063      26.0282 
     0.0173075      28.3977 
     0.0173086       30.982 
     0.0173098       33.794 
      0.017311      36.8444 
     0.0173122      40.1418 
     0.0173133      43.6913 
     0.0173145      47.4939 
     0.0173157      51.5445 
     0.0173171      56.7805 
     0.0173185      62.3262 
     0.0173209      72.0852 
     0.0173241      85.7127 
     0.0173259      92.6691 
     0.0173276      99.0936 
     0.0173289      103.412 
     0.0173302      107.196 
     0.0173314      110.225 
     0.0173326      112.662 
     0.0173339      114.483 
     0.0173351      115.685 
     0.0173363      116.284 
     0.0173367      116.354 
     0.0173383      116.039 
       0.01734      114.866 
     0.0173416      112.977 
     0.0173432      110.522 
     0.0173456      106.097 
     0.0173497       97.718 
     0.0173547      87.2014 
     0.0173577      81.3411 
     0.0173608      75.9614 
     0.0173638       71.089 
     0.0173668       66.709 
     0.0173698      62.7867 
     0.0173728      59.2783 
     0.0173759      56.1392 
     0.0173789      53.3261 
     0.0173819         50.8 
     0.0173849      48.5252 
      0.017388      46.4714 
      0.017392      44.0303 
      0.017396      41.8802 
        0.0174      39.9762 
     0.0174041      38.2818 
     0.0174081      36.7663 
     0.0174141      34.7749 
     0.0174198      33.1523 
     0.0174255      31.7358 
     0.0174315      30.4384 
     0.0174378      29.2135 
     0.0174442      28.1353 
     0.0174508      27.1493 
     0.0174598      25.9805 
     0.0174687      24.9726 
     0.0174777      24.0948 
     0.0174911      22.9716 
     0.0175045        22.03 
     0.0175179      21.2285 
     0.0175314       20.537 
     0.0175448      19.9333 
     0.0175627      19.2363 
     0.0175806       18.637 
     0.0176052       17.931 
     0.0176296       17.333 
     0.0176679      16.5337 
     0.0176749      16.4238 
     0.0176764      16.4803 
     0.0176795      16.7612 
       0.01768      16.7725 
      0.017681      16.7212 
     0.0176839      16.3627 
     0.0176859        16.24 
     0.0176974      16.0076 
     0.0178064      14.1973 
     0.0178327      13.7032 
     0.0178589      13.1236 
     0.0178764      12.6581 
     0.0178896      12.2445 
      0.017902      11.7817 
       0.01791       11.432 
     0.0179176      11.0537 
     0.0179252      10.6167 
      0.017931      10.2327 
     0.0179368      9.79502 
     0.0179421      9.33547 
     0.0179465       8.9068 
     0.0179509      8.42347 
     0.0179552      7.87564 
     0.0179581       7.4692 
     0.0179611        7.026 
      0.017964      6.54347 
     0.0179674      5.92801 
     0.0179708      5.26403 
     0.0179753      4.37096 
     0.0179767      4.09876 
     0.0179778      3.91367 
     0.0179789      3.75474 
     0.0179797      3.66037 
     0.0179804      3.60769 
      0.017981      3.57443 
     0.0179815      3.56462 
      0.017982       3.5742 
     0.0179824      3.59812 
     0.0179828      3.63871 
     0.0179832      3.69826 
     0.0179836      3.77941 
      0.017984      3.88518 
     0.0179844      4.01901 
     0.0179847      4.14011 
     0.0179851      4.28098 
     0.0179854      4.44372 
     0.0179856      4.59299 
     0.0179859       4.7906 
     0.0179862      5.01415 
     0.0179865      5.26615 
     0.0179868       5.5494 
     0.0179871      5.86694 
     0.0179874      6.22203 
     0.0179876      6.61827 
     0.0179879      7.01338 
     0.0179881      7.39783 
     0.0179884       7.8159 
     0.0179886      8.27005 
     0.0179888        8.763 
     0.0179891      9.29753 
     0.0179893      9.87652 
     0.0179895       10.503 
     0.0179898      11.1366 
     0.0179901       12.104 
     0.0179904      13.1728 
     0.0179907      14.3507 
      0.017991      15.6467 
     0.0179913      17.0687 
     0.0179916       18.396 
     0.0179918      19.8272 
     0.0179921      21.3684 
     0.0179923      23.0236 
     0.0179926      24.7981 
     0.0179929      26.6948 
     0.0179931      28.7171 
     0.0179934      30.8654 
     0.0179937      33.9296 
     0.0179941       37.218 
     0.0179944      40.7258 
     0.0179948      44.4383 
     0.0179953       50.351 
     0.0179959      57.6565 
     0.0179972      73.8246 
     0.0179979       81.716 
     0.0179984      86.5596 
     0.0179988      90.9418 
     0.0179993       94.905 
     0.0179997      97.5194 
         0.018      99.6896 
     0.0180004        101.4 
     0.0180007      102.643 
     0.0180012      103.564 
     0.0180016       103.77 
     0.0180019      103.612 
     0.0180023      102.879 
     0.0180028      101.619 
     0.0180035      98.9178 
     0.0180042      95.4942 
     0.0180052      89.4616 
     0.0180069      78.8274 
     0.0180078      73.8524 
     0.0180087      69.2722 
     0.0180096      65.1202 
     0.0180104      61.3911 
     0.0180113      58.0572 
     0.0180122      55.0818 
     0.0180131      52.4251 
     0.0180139      50.0495 
     0.0180148      47.9188 
     0.0180157      46.0032 
     0.0180169      43.7364 
      0.018018       41.749 
     0.0180193      39.8733 
     0.0180206      38.1165 
      0.018022       36.575 
     0.0180233      35.2134 
     0.0180251      33.6367 
     0.0180268      32.3581 
     0.0180284      31.2348 
     0.0180306      29.9345 
     0.0180328       28.817 
     0.0180358      27.5664 
     0.0180387      26.5132 
     0.0180416      25.6146 
     0.0180445      24.8393 
     0.0180489      23.8572 
     0.0180533       23.043 
     0.0180583      22.2688 
     0.0180645      21.4762 
     0.0180707      20.8256 
     0.0180766      20.3118 
     0.0180842       19.755 
      0.018092      19.2781 
      0.018104      18.6812 
     0.0181172      18.1661 
     0.0181303      17.7504 
     0.0181478      17.3044 
     0.0181741      16.7881 
     0.0182003       16.391 
     0.0182354      15.9762 
     0.0182791      15.5694 
     0.0183988       14.668 
     0.0184234      14.4196 
       0.01844      14.1662 
     0.0184486      13.9648 
     0.0184553       13.729 
     0.0184603      13.4608 
     0.0184636      13.1979 
     0.0184661      12.9203 
     0.0184678      12.6721 
     0.0184693      12.3804 
     0.0184706       12.038 
     0.0184713      11.8253 
     0.0184723      11.4387 
     0.0184733      10.9671 
     0.0184743      10.4646 
     0.0184748      10.2574 
     0.0184752      10.1639 
     0.0184755      10.1265 
     0.0184757      10.1474 
      0.018476      10.2206 
     0.0184762      10.3624 
     0.0184765      10.5815 
     0.0184767      10.8023 
     0.0184769      11.0752 
     0.0184771      11.4368 
     0.0184774      11.9474 
     0.0184776      12.5529 
     0.0184778      13.1138 
     0.0184781       13.851 
     0.0184783      14.7089 
     0.0184786      15.6867 
     0.0184791      17.6836 
     0.0184797      20.1881 
     0.0184801      21.5629 
     0.0184804      22.4838 
     0.0184806      23.2479 
     0.0184809      23.8847 
     0.0184812       24.384 
     0.0184814      24.7403 
     0.0184817      24.9544 
      0.018482       25.032 
     0.0184822      24.9837 
     0.0184825      24.8235 
     0.0184829      24.4142 
     0.0184833      23.8537 
     0.0184849      21.1917 
     0.0184854      20.4355 
     0.0184859      19.7798 
     0.0184864      19.2253 
     0.0184869      18.7632 
     0.0184875      18.2828 
     0.0184882      17.9148 
     0.0184891       17.486 
     0.0184901      17.1376 
     0.0184912      16.8326 
     0.0184927      16.5223 
     0.0184944      16.2608 
     0.0184961      16.0569 
     0.0184987      15.8083 
     0.0185031      15.5259 
     0.0185081      15.3027 
     0.0185161      15.0602 
     0.0185295      14.7943 
     0.0185706      14.2127 
     0.0185855      13.9387 
      0.018594      13.7146 
     0.0186003      13.4794 
     0.0186041      13.2903 
     0.0186079      13.0423 
     0.0186111      12.7645 
     0.0186133      12.5238 
     0.0186154      12.2158 
     0.0186172      11.8668 
     0.0186184      11.5868 
     0.0186196      11.2441 
     0.0186204      10.9415 
     0.0186213      10.5829 
     0.0186219      10.3083 
     0.0186227      9.85156 
     0.0186238      9.25252 
     0.0186242      9.04733 
     0.0186245      8.92975 
     0.0186248      8.86074 
      0.018625      8.85099 
     0.0186253      8.89806 
     0.0186256      8.99845 
     0.0186258      9.16533 
      0.018626      9.40863 
     0.0186262       9.6181 
     0.0186263      9.86867 
     0.0186265      10.1626 
     0.0186267      10.5521 
     0.0186269      11.0028 
      0.018627      11.5172 
     0.0186272      12.0956 
     0.0186274      12.9346 
     0.0186277      13.8768 
     0.0186278      14.5595 
     0.0186281      15.7022 
     0.0186284      17.3871 
     0.0186288      19.7691 
     0.0186295      23.9008 
     0.0186299      25.7515 
     0.0186302      27.2631 
     0.0186304      28.2517 
     0.0186307      29.1816 
     0.0186309      29.9312 
     0.0186312       30.484 
     0.0186315      30.8506 
     0.0186317      31.0351 
     0.0186318      31.0617 
     0.0186321       30.965 
     0.0186325      30.6108 
     0.0186328      30.0426 
     0.0186332      29.1871 
     0.0186339      27.4571 
     0.0186347      25.1599 
     0.0186353      23.9214 
     0.0186357      23.0252 
     0.0186361      22.2404 
     0.0186365      21.5621 
      0.018637        20.98 
     0.0186376      20.2592 
     0.0186382       19.684 
      0.018639       19.137 
       0.01864      18.5762 
      0.018641      18.1425 
     0.0186422      17.7341 
      0.018644       17.286 
     0.0186459      16.9163 
      0.018648      16.6086 
     0.0186514      16.2485 
     0.0186559      15.9223 
     0.0186622      15.6117 
     0.0186707       15.344 
     0.0186809      15.1332 
     0.0186928      14.9646 
     0.0187182      14.7331 
     0.0187532      14.5344 
     0.0187558      14.5684 
     0.0187579      14.7112 
     0.0187597      14.8363 
     0.0187601      14.8434 
     0.0187615      14.7905 
      0.018764      14.5826 
      0.018766      14.5124 
     0.0187826      14.4254 
     0.0188604      14.1996 
     0.0188634      14.2247 
     0.0188642      14.2828 
     0.0188649      14.3732 
     0.0188655      14.5477 
     0.0188661         14.8 
     0.0188666      15.1139 
      0.018867      15.4746 
     0.0188673      15.8505 
     0.0188678      16.4123 
      0.018868      16.7976 
     0.0188685      17.6709 
     0.0188691      18.8196 
       0.01887      20.5148 
       0.01887      20.5514 
       0.01887      14.7008 
     0.0191362      14.6677 
     0.0194062      14.6342 
       0.01968      14.6001 
     0.0199576      14.5656 
          0.02      14.5604 
     0.0202822      14.5454 
     0.0205683      14.5303 
     0.0208585       14.515 
     0.0211528      14.4994 
     0.0214512      14.4837 
     0.0217538      14.4677 
     0.0220607      14.4514 
      0.022372       14.435 
     0.0226876      14.4183 
     0.0230077      14.4014 
     0.0233323      14.3842 
     0.0236615      14.3668 
     0.0239953      14.3492 
     0.0243338      14.3313 
     0.0246771      14.3131 
     0.0250253      14.2947 
     0.0253783      14.2761 
     0.0257364      14.2571 
     0.0260995      14.2379 
     0.0264677      14.2185 
     0.0268411      14.1987 
     0.0272198      14.1787 
     0.0276038      14.1584 
     0.0279932      14.1378 
     0.0283882       14.117 
     0.0287887      14.0958 
     0.0291948      14.0743 
     0.0296067      14.0525 
     0.0300244      14.0305 
      0.030448      14.0081 
     0.0308776      13.9854 
     0.0313132      13.9623 
      0.031755       13.939 
      0.032203      13.9153 
     0.0326573      13.8913 
      0.033118      13.8669 
     0.0335853      13.8422 
     0.0340591      13.8172 
     0.0345396      13.7918 
     0.0350269       13.766 
     0.0355211      13.7399 
     0.0360222      13.7134 
     0.0365304      13.6866 
     0.0370458      13.6593 
     0.0375684      13.6317 
     0.0380985      13.6037 
      0.038636      13.5753 
     0.0391811      13.5464 
     0.0397338      13.5172 
     0.0402944      13.4876 
     0.0408629      13.4575 
     0.0414394      13.4271 
      0.042024      13.3962 
     0.0426169      13.3648 
     0.0432182       13.333 
     0.0438279      13.3008 
     0.0444462      13.2681 
     0.0450733       13.235 
     0.0457092      13.2014 
      0.046354      13.1673 
      0.047008      13.1327 
     0.0476712      13.0977 
     0.0483438      13.0621 
     0.0490258      13.0261 
     0.0497175      12.9895 
          0.05      12.9746 
     0.0507054      12.9525 
     0.0514208      12.9301 
     0.0521462      12.9073 
     0.0528819      12.8843 
      0.053628      12.8609 
     0.0543846      12.8372 
     0.0551518      12.8132 
     0.0559299      12.7888 
      0.056719      12.7641 
     0.0575192       12.739 
     0.0583307      12.7136 
     0.0591536      12.6878 
     0.0599882      12.6617 
     0.0608345      12.6352 
     0.0616928      12.6083 
     0.0625632      12.5811 
     0.0634458      12.5534 
     0.0643409      12.5254 
     0.0652487      12.4969 
     0.0661692      12.4681 
     0.0671027      12.4389 
     0.0680494      12.4092 
     0.0690095      12.3791 
     0.0699831      12.3486 
     0.0709704      12.3177 
     0.0719717      12.2864 
     0.0729871      12.2546 
     0.0740168      12.2223 
      0.075061      12.1896 
       0.07612      12.1564 
     0.0771939      12.1228 
      0.078283      12.0887 
     0.0793874      12.0541 
          0.08      12.0349 
     0.0811287      12.0064 
     0.0822732      11.9775 
      0.083434      11.9483 
     0.0846111      11.9186 
     0.0858048      11.8884 
     0.0870153      11.8579 
      0.088243      11.8269 
     0.0894879      11.7955 
     0.0907504      11.7637 
     0.0920307      11.7314 
     0.0933291      11.6986 
     0.0946458      11.6654 
     0.0959811      11.6317 
     0.0973352      11.5975 
     0.0987085      11.5629 
           0.1      11.5303 
      0.101411      11.5036 
      0.102842      11.4765 
      0.104292       11.449 
      0.105764      11.4212 
      0.107256      11.3929 
      0.108769      11.3642 
      0.110304      11.3352 
       0.11186      11.3057 
      0.113438      11.2758 
      0.115038      11.2455 
      0.116661      11.2148 
      0.118307      11.1836 
      0.119976       11.152 
      0.121669        11.12 
      0.123386      11.0875 
      0.125126      11.0545 
      0.126892      11.0211 
      0.128682      10.9872 
      0.130497      10.9528 
      0.132338      10.9179 
      0.134205      10.8826 
      0.136099      10.8467 
      0.138019      10.8104 
      0.139966      10.7735 
      0.141941      10.7361 
      0.143943      10.6982 
      0.145974      10.6597 
      0.148034      10.6207 
      0.150122      10.5812 
       0.15224      10.5411 
      0.154388      10.5004 
      0.156566      10.4592 
      0.158775      10.4173 
      0.161015      10.3749 
      0.163287      10.3319 
       0.16559      10.2883 
      0.167926       10.244 
      0.170296      10.1992 
      0.172698      10.1537 
      0.175135      10.1075 
      0.177605      10.0607 
      0.180111      10.0133 
      0.182652      9.96518 
      0.185229      9.91638 
      0.187842       9.8669 
      0.190492      9.81672 
       0.19318      9.76583 
      0.195905      9.71422 
      0.198669      9.66188 
           0.2      9.63668 
      0.279196      8.70758 
      0.279196      8.70749 
           0.4      7.02383 
           0.6      5.51015 
           0.8      4.60419 
           1.2      3.69791 
           1.4      3.60973 
           1.6      3.69342 
        1.8127      3.87886 
        2.1302      4.22511 
       2.29784      4.40713 
       2.51764      4.62267 
        2.7694      4.81919 
             3      4.94785 
           3.3      5.03776 
           3.6      5.05475 
             4      4.98598 
       4.53174      4.78382 
       5.03527      4.52713 
       6.12757      3.89064 
             7       3.4046 
             8      2.99037 
           8.3      2.91861 
           8.7      2.96587 
             9      2.85552 
           9.2      2.86121 
            10      2.99007 
       10.1411      2.93889 
       10.2842      2.88698 
          10.3      2.88123 
       10.4453      2.85422 
       10.5927      2.82682 
       10.7421      2.79904 
       10.8937      2.77086 
            11       2.7511 
       11.1552      2.76091 
       11.3126      2.77086 
       11.4722      2.78095 
        11.634      2.79119 
       11.7982      2.80156 
       11.9646      2.81209 
            12      2.81433 
       12.1693       2.8156 
        12.341      2.81689 
       12.5151       2.8182 
       12.6917      2.81953 
       12.8707      2.82087 
            13      2.82184 
       13.1834      2.84511 
       13.3694       2.8687 
        13.558      2.89262 
       13.7493      2.91688 
       13.9433      2.94149 
            14      2.94868 
       14.1975      2.97677 
       14.3978      3.00526 
       14.6009      3.03415 
       14.8069      3.06345 
            15      3.09091 
       15.2116      3.11712 
       15.4262       3.1437 
       15.6439      3.17065 
       15.8646      3.19798 
            16      3.21475 
       16.2257      3.24002 
       16.4546      3.26563 
       16.6868      3.29161 
       16.9222      3.31796 
            17      3.32666 
       17.2398      3.34637 
       17.4831      3.36635 
       17.7297      3.38662 
       17.9799      3.40717 
            18      3.40882 
       18.2539      3.42207 
       18.5115       3.4355 
       18.7726      3.44912 
            19      3.46098 
       19.2681      3.46913 
       19.5399       3.4774 
       19.8156      3.48579 
            20       3.4914 
       20.2822      3.49464 
       20.5683      3.49792 
       20.8585      3.50126 
            21      3.50288 
       21.2963      3.49925 
       21.5967      3.49557 
       21.9014      3.49183 
            22      3.49062 
       22.3104      3.48004 
       22.6251      3.46931 
       22.9443      3.45843 
       23.0379      3.45525 
       23.3629      3.44179 
       23.6925      3.42815 
            24      3.41542 
       24.3386      3.39372 
        24.682      3.37171 
       25.0302       3.3494 
       25.3833      3.32676 
       25.7414      3.30381 
            26      3.28724 
       26.3668      3.25549 
       26.7388      3.22329 
        27.116      3.19064 
       27.4986      3.15753 
       27.8866      3.12395 
         28.28      3.08989 
        28.679      3.05536 
       29.0836      3.02034 
       29.4939      2.98482 
         29.91      2.94881 
            30      2.94102 
//
#-------------------------------------------------------------------------------
